# starting wavelength =        3430.2863
# ending wavelength =        10121.775
# O2 telluric scale =        0
# O2 telluric shift =        0
# H2O telluric scale =        0
# H2O telluric shift =        0
      3433.02       1.0841965     0.034967607
      3436.45       1.1151709     0.031778660
      3439.89       1.1353389     0.025825780
      3443.33       1.1488156     0.023893945
      3446.78       1.1627418     0.020156990
      3450.22       1.1700242     0.018250765
      3453.67       1.1732728     0.017344981
      3457.13       1.1739516     0.015578582
      3460.58       1.1776213     0.015011858
      3464.04       1.1837108     0.013954005
      3467.51       1.1900249     0.013578462
      3470.98       1.1979378     0.012940533
      3474.45       1.2092821     0.012475283
      3477.92       1.2200363     0.012237362
      3481.40       1.2258463     0.011898326
      3484.88       1.2227259     0.011707840
      3488.37       1.2213031     0.011482530
      3491.86       1.2231606     0.011321293
      3495.35       1.2271174     0.011169890
      3498.84       1.2346670     0.010999880
      3502.34       1.2292434     0.010966188
      3505.84       1.2227221     0.011044626
      3509.35       1.2258808     0.011012812
      3512.86       1.2251467     0.010982191
      3516.37       1.2191378     0.010952770
      3519.89       1.2190511     0.010891182
      3523.41       1.2152536     0.010858466
      3526.93       1.2111909     0.010826972
      3530.46       1.2069289     0.010796731
      3533.99       1.2061724     0.010871993
      3537.53       1.2036446     0.010837921
      3541.06       1.2043365     0.010805197
      3544.60       1.2018230     0.010643212
      3548.15       1.1942205     0.010721115
      3551.70       1.1905295     0.010686253
      3555.25       1.1912335     0.010652799
      3558.80       1.1953692     0.010620732
      3562.36       1.1928879     0.010571893
      3565.92       1.1921099     0.010536350
      3569.49       1.1944180     0.010502241
      3573.06       1.1986755     0.010469583
      3576.64       1.1964087     0.010549798
      3580.21       1.2005381     0.010519736
      3583.79       1.2105492     0.010353283
      3587.38       1.2245252     0.010430342
      3590.96       1.2357100     0.010398258
      3594.55       1.2447474     0.010367644
      3598.15       1.2533194     0.010338862
      3601.75       1.2606139     0.010412433
      3605.35       1.2640905     0.010248356
      3608.96       1.2692650     0.010217550
      3612.56       1.2728474     0.010188362
      3616.18       1.2861811     0.010262469
      3619.79       1.2946813     0.010229252
      3623.41       1.3018103     0.010068935
      3627.04       1.3060291     0.010148902
      3630.66       1.3089746     0.010113719
      3634.29       1.3149432     0.010080384
      3637.93       1.3216445     0.010048880
      3641.57       1.3252704     0.010001297
      3645.21       1.3299918    0.0099660939
      3648.86       1.3344074    0.0099327752
      3652.50       1.3378236     0.010012750
      3656.16       1.3434426    0.0099828359
      3659.81       1.3479901    0.0098195252
      3663.47       1.3542750    0.0097863854
      3667.14       1.3589451    0.0098648567
      3670.80       1.3658816    0.0098352074
      3674.48       1.3746822    0.0098076217
      3678.15       1.3850139    0.0097496526
      3681.83       1.3924052    0.0097183302
      3685.51       1.3979971    0.0096890979
      3689.20       1.4056892    0.0097659753
      3692.88       1.4144785    0.0097324498
      3696.58       1.4267969    0.0095731660
      3700.27       1.4376781    0.0095445258
      3703.98       1.4460773    0.0096190174
      3707.68       1.4551220    0.0095861484
      3711.39       1.4604771    0.0095556106
      3715.10       1.4615306    0.0095076453
      3718.81       1.4653370    0.0094732507
      3722.53       1.4717571    0.0094412496
      3726.26       1.4783648    0.0095235303
      3729.98       1.4743135    0.0093622250
      3733.71       1.4781406    0.0093288338
      3737.45       1.4836352    0.0094083888
      3741.18       1.4829863    0.0093794653
      3744.93       1.4808812    0.0093531320
      3748.67       1.4807680    0.0092951067
      3752.42       1.4811281    0.0092648945
      3756.17       1.4777886    0.0092373033
      3759.93       1.4767311    0.0093121500
      3763.69       1.4737179    0.0091520656
      3767.45       1.4703947    0.0091233140
      3771.22       1.4674414    0.0092006344
      3774.99       1.4661837    0.0091674270
      3778.77       1.4694109    0.0090109637
      3782.54       1.4708226    0.0090904067
      3786.33       1.4727853    0.0090561022
      3790.11       1.4748098    0.0090247648
      3793.90       1.4774108    0.0091098373
      3797.70       1.4787150    0.0089460123
      3801.50       1.4852936    0.0089137430
      3805.30       1.4957167    0.0089964577
      3809.10       1.5033930    0.0089699101
      3812.91       1.5147895    0.0089149865
      3816.73       1.5228892    0.0088844181
      3820.54       1.5291184    0.0088570856
      3824.36       1.5386126    0.0089342892
      3828.19       1.5460247    0.0087735725
      3832.02       1.5546036    0.0087455754
      3835.85       1.5622981    0.0088236644
      3839.68       1.5730783    0.0087910731
      3843.52       1.5872009    0.0086352710
      3847.37       1.5967791    0.0087138967
      3851.22       1.6065856    0.0086807890
      3855.07       1.6172784    0.0087674544
      3858.92       1.6247721    0.0086049218
      3862.78       1.6303933    0.0085714335
      3866.64       1.6386396    0.0086562348
      3870.51       1.6452691    0.0086297930
      3874.38       1.6517248    0.0084629036
      3878.26       1.6604748    0.0085460244
      3882.13       1.6714254    0.0085193869
      3886.02       1.6798597    0.0084674064
      3889.90       1.6870146    0.0084367324
      3893.79       1.6930836    0.0084100759
      3897.69       1.6992026    0.0084882141
      3901.59       1.7110039    0.0083283625
      3905.49       1.7206106    0.0084144797
      3909.39       1.7269488    0.0083789326
      3913.30       1.7331550    0.0083478406
      3917.22       1.7375387    0.0083056201
      3921.13       1.7424928    0.0082703799
      3925.06       1.7472732    0.0082396616
      3928.98       1.7502791    0.0081973591
      3932.91       1.7540037    0.0081625981
      3936.84       1.7572917    0.0082489575
      3940.78       1.7598863    0.0082229494
      3944.72       1.7594571    0.0081711964
      3948.67       1.7560924    0.0081410560
      3952.61       1.7496839    0.0081158038
      3956.57       1.7397225    0.0080634202
      3960.52       1.7358665    0.0080341565
      3964.48       1.7325341    0.0081203517
      3968.45       1.7299376    0.0080861441
      3972.42       1.7253648    0.0079283321
      3976.39       1.7237959    0.0080114883
      3980.37       1.7228370    0.0079785392
      3984.35       1.7248127    0.0079406550
      3988.33       1.7267754    0.0079035400
      3992.32       1.7323880    0.0079931524
      3996.31       1.7378167    0.0079667501
      4000.31       1.7433572    0.0077966114
      4004.31       1.7489006    0.0078861487
      4008.31       1.7541991    0.0078615104
      4012.32       1.7591605    0.0078092275
      4016.33       1.7653192    0.0077805250
      4020.35       1.7739871    0.0078693508
      4024.37       1.7812427    0.0077030266
      4028.40       1.7845122    0.0076764215
      4032.42       1.7878228    0.0077604104
      4036.46       1.7886000    0.0077291324
      4040.50       1.7872716    0.0076884156
      4044.54       1.7865818    0.0076530125
      4048.58       1.7869330    0.0077508727
      4052.63       1.7827905    0.0075799629
      4056.68       1.7777650    0.0076726116
      4060.74       1.7711937    0.0076463475
      4064.80       1.7635941    0.0074732985
      4068.86       1.7597412    0.0075671083
      4072.93       1.7568326    0.0075441029
      4077.01       1.7508918    0.0074908198
      4081.08       1.7432935    0.0074638985
      4085.17       1.7334763    0.0075531151
      4089.25       1.7301068    0.0073865265
      4093.34       1.7239032    0.0074812778
      4097.43       1.7217380    0.0074454520
      4101.53       1.7242806    0.0074119445
      4105.63       1.7232959    0.0073720528
      4109.74       1.7215833    0.0073406220
      4113.85       1.7182253    0.0073010492
      4117.96       1.7183180    0.0072658079
      4122.08       1.7183236    0.0072321993
      4126.20       1.7158503    0.0071932452
      4130.33       1.7144321    0.0070341460
      4134.46       1.7168388    0.0071227221
      4138.59       1.7181703    0.0070888039
      4142.73       1.7180303    0.0070541116
      4146.88       1.7235073    0.0070167824
      4151.02       1.7300177    0.0068624232
      4155.18       1.7329947    0.0069465522
      4159.33       1.7345396    0.0067903071
      4163.49       1.7387306    0.0068779857
      4167.65       1.7436060    0.0068430243
      4171.82       1.7449301    0.0066940169
      4175.99       1.7488541    0.0067729791
      4180.17       1.7561189    0.0066224231
      4184.35       1.7578802    0.0067043623
      4188.54       1.7576144    0.0065522813
      4192.72       1.7583243    0.0065288906
      4196.92       1.7618482    0.0066024862
      4201.11       1.7637941    0.0064581782
      4205.31       1.7639650    0.0065338794
      4209.52       1.7643434    0.0063883784
      4213.73       1.7663199    0.0064663747
      4217.94       1.7701111    0.0063197912
      4222.16       1.7720709    0.0062981294
      4226.38       1.7749894    0.0062522773
      4230.61       1.7756616    0.0062287273
      4234.84       1.7756442    0.0061857504
      4239.08       1.7749333    0.0061604235
      4243.32       1.7732405    0.0062328935
      4247.56       1.7693306    0.0060931230
      4251.81       1.7662991    0.0060740207
      4256.06       1.7677153    0.0060267601
      4260.32       1.7670246    0.0060061340
      4264.58       1.7612149    0.0059612260
      4268.84       1.7597293    0.0059391972
      4273.11       1.7596722    0.0058964742
      4277.38       1.7592589    0.0058731471
      4281.66       1.7579092    0.0057378342
      4285.94       1.7554358    0.0058078952
      4290.23       1.7551100    0.0056754379
      4294.52       1.7572420    0.0057434081
      4298.81       1.7558728    0.0056136021
      4303.11       1.7547721    0.0056796227
      4307.42       1.7520349    0.0055522819
      4311.72       1.7518606    0.0056164825
      4316.04       1.7504080    0.0054914535
      4320.35       1.7481133    0.0055539573
      4324.67       1.7455849    0.0054311028
      4329.00       1.7421756    0.0054032281
      4333.33       1.7381396    0.0053711773
      4337.66       1.7356100    0.0053428058
      4342.00       1.7301103    0.0053116434
      4346.34       1.7275306    0.0052828755
      4350.69       1.7233351    0.0052524860
      4355.04       1.7194667    0.0052234328
      4359.39       1.7150699    0.0051937103
      4363.75       1.7142738    0.0051644373
      4368.12       1.7135803    0.0051352828
      4372.48       1.7149013    0.0051059014
      4376.86       1.7176171    0.0050771772
      4381.23       1.7198505    0.0050477976
      4385.61       1.7258621    0.0050194292
      4390.00       1.7298724    0.0049901211
      4394.39       1.7364141    0.0049619906
      4398.79       1.7379471    0.0049328524
      4403.18       1.7419015    0.0049049189
      4407.59       1.7469260    0.0048760453
      4412.00       1.7486391    0.0048481322
      4416.41       1.7517404    0.0048196500
      4420.82       1.7553094    0.0047917429
      4425.25       1.7598406    0.0047636892
      4429.67       1.7645553    0.0046617900
      4434.10       1.7679159    0.0047081708
      4438.54       1.7722585    0.0046077186
      4442.97       1.7780078    0.0046531236
      4447.42       1.7857110    0.0045541743
      4451.86       1.7941978    0.0045985458
      4456.32       1.8063183    0.0045698509
      4460.77       1.8141740    0.0045444467
      4465.24       1.8250271    0.0045153909
      4469.70       1.8314212    0.0044136094
      4474.17       1.8361507    0.0044614005
      4478.65       1.8404562    0.0043614593
      4483.12       1.8427456    0.0044078720
      4487.61       1.8482484    0.0043098508
      4492.09       1.8510201    0.0043548618
      4496.59       1.8511770    0.0042588011
      4501.08       1.8524774    0.0043023861
      4505.58       1.8539602    0.0042083357
      4510.09       1.8532527    0.0042504544
      4514.60       1.8504497    0.0041584829
      4519.12       1.8485528    0.0041267042
      4523.63       1.8471858    0.0041092644
      4528.16       1.8452374    0.0040768971
      4532.69       1.8424590    0.0040607157
      4537.22       1.8403124    0.0040277237
      4541.76       1.8337280    0.0040128566
      4546.30       1.8231341    0.0039792084
      4550.85       1.8180999    0.0038914987
      4555.40       1.8111312    0.0039313964
      4559.95       1.8035051    0.0039016483
      4564.51       1.7977217    0.0038843112
      4569.08       1.7918741    0.0038537587
      4573.65       1.7879307    0.0038379901
      4578.22       1.7829713    0.0038066257
      4582.80       1.7812430    0.0037233112
      4587.38       1.7788195    0.0037602691
      4591.97       1.7755392    0.0036768358
      4596.56       1.7719693    0.0037147259
      4601.16       1.7702181    0.0036311499
      4605.76       1.7696013    0.0036700446
      4610.37       1.7666289    0.0036401316
      4614.98       1.7629556    0.0035603959
      4619.59       1.7605936    0.0035953837
      4624.21       1.7554497    0.0035154065
      4628.84       1.7476971    0.0035515620
      4633.47       1.7415092    0.0034712933
      4638.10       1.7381609    0.0034469386
      4642.74       1.7358228    0.0034280994
      4647.38       1.7319634    0.0034027258
      4652.03       1.7282879    0.0034366587
      4656.68       1.7262576    0.0033594647
      4661.34       1.7253224    0.0033362392
      4666.00       1.7251497    0.0033172048
      4670.67       1.7271645    0.0032928839
      4675.33       1.7273796    0.0033250981
      4680.01       1.7299854    0.0032505863
      4684.69       1.7335245    0.0032281503
      4689.38       1.7363319    0.0032093547
      4694.07       1.7380988    0.0031857863
      4698.76       1.7377888    0.0031171694
      4703.46       1.7406970    0.0031445651
      4708.16       1.7431800    0.0031226410
      4712.87       1.7444242    0.0031045248
      4717.58       1.7447765    0.0030814249
      4722.30       1.7476797    0.0030152628
      4727.03       1.7513362    0.0030414280
      4731.75       1.7525403    0.0030197611
      4736.48       1.7514732    0.0029533085
      4741.22       1.7518552    0.0029798511
      4745.96       1.7555327    0.0029164709
      4750.71       1.7574606    0.0029412490
      4755.46       1.7605054    0.0029196602
      4760.22       1.7629557    0.0028562252
      4764.97       1.7665309    0.0028812159
      4769.74       1.7709407    0.0028209021
      4774.51       1.7730354    0.0027973775
      4779.29       1.7745560    0.0028224810
      4784.07       1.7754216    0.0027623501
      4788.85       1.7777449    0.0027398392
      4793.64       1.7811516    0.0027286999
      4798.43       1.7848715    0.0027051439
      4803.23       1.7904073    0.0026835363
      4808.03       1.7957567    0.0026718709
      4812.84       1.8012002    0.0026492169
      4817.66       1.8054624    0.0026723404
      4822.48       1.8081006    0.0026163623
      4827.30       1.8122148    0.0025944893
      4832.12       1.8172254    0.0025850213
      4836.96       1.8247646    0.0025621038
      4841.79       1.8287744    0.0025409360
      4846.63       1.8331462    0.0025312736
      4851.48       1.8363939    0.0025090595
      4856.33       1.8408833    0.0024885166
      4861.19       1.8432047    0.0024356273
      4866.05       1.8453028    0.0024572004
      4870.92       1.8498290    0.0024371996
      4875.79       1.8537365    0.0023854641
      4880.66       1.8576134    0.0024065012
      4885.55       1.8636605    0.0023869768
      4890.43       1.8701523    0.0023363297
      4895.32       1.8781746    0.0023569480
      4900.22       1.8857472    0.0023378427
      4905.12       1.8932964    0.0022882041
      4910.02       1.9006328    0.0023085341
      4914.94       1.9070571    0.0022583701
      4919.85       1.9140563    0.0022411187
      4924.77       1.9213402    0.0022612665
      4929.70       1.9271247    0.0022120500
      4934.62       1.9348541    0.0021950609
      4939.56       1.9385357    0.0021792442
      4944.50       1.9434992    0.0021668253
      4949.44       1.9502250    0.0021500505
      4954.39       1.9563431    0.0021344057
      4959.35       1.9610983    0.0021227100
      4964.31       1.9651715    0.0021061251
      4969.27       1.9713626    0.0020906131
      4974.24       1.9786800    0.0021087086
      4979.22       1.9867831    0.0020633048
      4984.20       1.9971402    0.0020479033
      4989.18       2.0098504    0.0020335172
      4994.17       2.0202536    0.0020216180
      4999.16       2.0311408    0.0020063083
      5004.16       2.0426516    0.0019919554
      5009.17       2.0565715    0.0019502236
      5014.18       2.0687434    0.0019658570
      5019.19       2.0818009    0.0019515359
      5024.21       2.0946475    0.0019115583
      5029.23       2.1093183    0.0019265991
      5034.26       2.1224951    0.0019122930
      5039.30       2.1362139    0.0018988443
      5044.34       2.1487000    0.0018592169
      5049.39       2.1606363    0.0018742723
      5054.43       2.1713463    0.0018607991
      5059.49       2.1834209    0.0018230871
      5064.55       2.1972227    0.0018090096
      5069.61       2.2072920    0.0018240206
      5074.68       2.2158619    0.0017882487
      5079.76       2.2233304    0.0017741835
      5084.84       2.2298074    0.0017608390
      5089.92       2.2334325    0.0017757438
      5095.01       2.2375231    0.0017406937
      5100.11       2.2391139    0.0017273297
      5105.21       2.2455001    0.0017146398
      5110.31       2.2495131    0.0017085846
      5115.42       2.2505640    0.0016952037
      5120.54       2.2524493    0.0016824776
      5125.66       2.2543835    0.0016703800
      5130.79       2.2580567    0.0016645131
      5135.92       2.2623536    0.0016517458
      5141.05       2.2660210    0.0016395862
      5146.20       2.2715495    0.0016280235
      5151.34       2.2756250    0.0015959135
      5156.49       2.2802480    0.0016102895
      5161.65       2.2870344    0.0015986513
      5166.81       2.2904981    0.0015875740
      5171.98       2.2897922    0.0015563834
      5177.15       2.2887451    0.0015708332
      5182.33       2.2883017    0.0015596701
      5187.51       2.2851703    0.0015490351
      5192.70       2.2826007    0.0015187019
      5197.89       2.2775853    0.0015091351
      5203.09       2.2749567    0.0015226598
      5208.29       2.2670239    0.0015124319
      5213.50       2.2598074    0.0014828985
      5218.72       2.2511359    0.0014736885
      5223.93       2.2427536    0.0014649204
      5229.16       2.2348902    0.0014778022
      5234.39       2.2254212    0.0014490905
      5239.62       2.2143351    0.0014404732
      5244.86       2.2052151    0.0014322777
      5250.11       2.1963724    0.0014248738
      5255.36       2.1888574    0.0014374623
      5260.61       2.1811182    0.0014103913
      5265.87       2.1717264    0.0014034659
      5271.14       2.1613428    0.0013976474
