# starting wavelength =        3479.7227
# ending wavelength =        10063.442
# O2 telluric scale =        0
# O2 telluric shift =        0
# H2O telluric scale =        0
# H2O telluric shift =        0
      3481.40       1.5826778     0.025646148
      3484.88       1.5814706     0.025562241
      3488.37       1.5790825     0.025481636
      3491.86       1.5758335     0.025404222
      3495.35       1.5646428     0.025330078
      3498.84       1.5398036     0.025219908
      3502.34       1.5306947     0.025135871
      3505.84       1.5290537     0.025055248
      3509.35       1.5294176     0.024978028
      3512.86       1.5241682     0.025202916
      3516.37       1.5285610     0.025131665
      3519.89       1.5429217     0.025064051
      3523.41       1.5558887     0.024632058
      3526.93       1.5373327     0.024850014
      3530.46       1.5221490     0.024775942
      3533.99       1.5243712     0.024705669
      3537.53       1.5384972     0.024639226
      3541.06       1.5494485     0.024843093
      3544.60       1.5471726     0.024425938
      3548.15       1.5373910     0.024353247
      3551.70       1.5326567     0.024284518
      3555.25       1.5318375     0.024495981
      3558.80       1.5283204     0.024415530
      3562.36       1.5270818     0.024339432
      3565.92       1.5291141     0.023935146
      3569.49       1.5341551     0.024152565
      3573.06       1.5348943     0.024069982
      3576.64       1.5334544     0.023991893
      3580.21       1.5320496     0.023918305
      3583.79       1.5269642     0.023812158
      3587.38       1.5284696     0.023727752
      3590.96       1.5372050     0.023648017
      3594.55       1.5480370     0.023872508
      3598.15       1.5516330     0.023801039
      3601.75       1.5565992     0.023734546
      3605.35       1.5711773     0.023307218
      3608.96       1.5781945     0.023526112
      3612.56       1.5864858     0.023453553
      3616.18       1.5949970     0.023386083
      3619.79       1.6020320     0.023601072
      3623.41       1.6059765     0.023182784
      3627.04       1.6125462     0.023109514
      3630.66       1.6193461     0.023041510
      3634.29       1.6253833     0.023256286
      3637.93       1.6444179     0.023175594
      3641.57       1.6670526     0.023100687
      3645.21       1.6796675     0.023000150
      3648.86       1.6785581     0.022913414
      3652.50       1.6781232     0.022832718
      3656.16       1.6818868     0.022757919
      3659.81       1.6862853     0.022995679
      3663.47       1.6859875     0.022572515
      3667.14       1.6896212     0.022492198
      3670.80       1.6955164     0.022720819
      3674.48       1.6987630     0.022651693
      3678.15       1.7014129     0.022589105
      3681.83       1.7143500     0.022453470
      3685.51       1.7271899     0.022378937
      3689.20       1.7356983     0.022311059
      3692.88       1.7406630     0.022249849
      3696.58       1.7534132     0.022112977
      3700.27       1.7705201     0.022040038
      3703.98       1.7865912     0.021973928
      3707.68       1.7990737     0.022189128
      3711.39       1.8055079     0.022109578
      3715.10       1.8169649     0.021704377
      3718.81       1.8289387     0.021931226
      3722.53       1.8349600     0.021846679
      3726.26       1.8402276     0.021769767
      3729.98       1.8514005     0.022013519
      3733.71       1.8511368     0.021588629
      3737.45       1.8462148     0.021507151
      3741.18       1.8347998     0.021742527
      3744.93       1.8182794     0.021675715
      3748.67       1.7989905     0.021248881
      3752.42       1.7862097     0.021476421
      3756.17       1.7706676     0.021405345
      3759.93       1.7541266     0.021342735
      3763.69       1.7329346     0.021558439
      3767.45       1.7128536     0.021139442
      3771.22       1.7033704     0.021073024
      3774.99       1.6950782     0.021296558
      3778.77       1.6960525     0.021215728
      3782.54       1.7033280     0.020807528
      3786.33       1.6987760     0.021037853
      3790.11       1.7067328     0.020953338
      3793.90       1.7212399     0.020878609
      3797.70       1.7340641     0.020781771
      3801.50       1.7431976     0.020693904
      3805.30       1.7560898     0.020616056
      3809.10       1.7762712     0.020865646
      3812.91       1.7902428     0.020436954
      3816.73       1.8035313     0.020671133
      3820.54       1.8136135     0.020599082
      3824.36       1.8204294     0.020537685
      3828.19       1.8224233     0.020409931
      3832.02       1.8331345     0.020335437
      3835.85       1.8457768     0.020271841
      3839.68       1.8576166     0.020497057
      3843.52       1.8714469     0.020074352
      3847.37       1.8905537     0.020008903
      3851.22       1.9105555     0.020235812
      3855.07       1.9280233     0.020155437
      3858.92       1.9476942     0.020070647
      3862.78       1.9619410     0.019976208
      3866.64       1.9757314     0.019894482
      3870.51       1.9890369     0.020155293
      3874.38       1.9939415     0.019717976
      3878.26       1.9974120     0.019962577
      3882.13       2.0024522     0.019890975
      3886.02       2.0123727     0.019832815
      3889.90       2.0282937     0.019700722
      3893.79       2.0378872     0.019628795
      3897.69       2.0451098     0.019570521
      3901.59       2.0484734     0.019794795
      3905.49       2.0558389     0.019368718
      3909.39       2.0617531     0.019620034
      3913.30       2.0687493     0.019531558
      3917.22       2.0786960     0.019110777
      3921.13       2.0895545     0.019357312
      3925.06       2.0993882     0.019269992
      3928.98       2.1158205     0.019544818
      3932.91       2.1210185     0.019095737
      3936.84       2.1191737     0.019010057
      3940.78       2.1149328     0.019281825
      3944.72       2.1115671     0.018835388
      3948.67       2.1035101     0.019090308
      3952.61       2.0968975     0.019021219
      3956.57       2.0933304     0.018969302
      3960.52       2.0947502     0.018829232
      3964.48       2.1032528     0.018763202
      3968.45       2.1095563     0.018319162
      3972.42       2.1151980     0.018570389
      3976.39       2.1260147     0.018507992
      3980.37       2.1395314     0.018063846
      3984.35       2.1484999     0.018314070
      3988.33       2.1588735     0.018255885
      3992.32       2.1740086     0.018131785
      3996.31       2.1842693     0.018060650
      4000.31       2.1951273     0.017641330
      4004.31       2.2032283     0.017876402
      4008.31       2.2084569     0.017810475
      4012.32       2.2055305     0.017388589
      4016.33       2.1987533     0.017624122
      4020.35       2.1899684     0.017563949
      4024.37       2.1785778     0.017138758
      4028.40       2.1764133     0.017375403
      4032.42       2.1876539     0.016972989
      4036.46       2.1947102     0.016892298
      4040.50       2.2012752     0.017130742
      4044.54       2.2107400     0.016723598
      4048.58       2.2205873     0.016948564
      4052.63       2.2303665     0.016562184
      4056.68       2.2349521     0.016478174
      4060.74       2.2396966     0.016705768
      4064.80       2.2413570     0.016313501
      4068.86       2.2435812     0.016237158
      4072.93       2.2456624     0.016155084
      4077.01       2.2463556     0.016069327
      4081.08       2.2407398     0.016287812
      4085.17       2.2329825     0.015907452
      4089.25       2.2198426     0.015830305
      4093.34       2.1951501     0.015751066
      4097.43       2.1808452     0.015665146
      4101.53       2.1707107     0.015596943
      4105.63       2.1678140     0.015505098
      4109.74       2.1660478     0.015428699
      4113.85       2.1634153     0.015349838
      4117.96       2.1595923     0.015265362
      4122.08       2.1560891     0.014924234
      4126.20       2.1523761     0.015106507
      4130.33       2.1528605     0.015032351
      4134.46       2.1560262     0.014951687
      4138.59       2.1590450     0.014870247
      4142.73       2.1646795     0.014538930
      4146.88       2.1719313     0.014711976
      4151.02       2.1764628     0.014376642
      4155.18       2.1817399     0.014557240
      4159.33       2.1830283     0.014480284
      4163.49       2.1777603     0.014160111
      4167.65       2.1672790     0.014322348
      4171.82       2.1616860     0.013998930
      4175.99       2.1648637     0.014167520
      4180.17       2.1662378     0.013840851
      4184.35       2.1624712     0.013788522
      4188.54       2.1602285     0.013938643
      4192.72       2.1549722     0.013628278
      4196.92       2.1514203     0.013783628
      4201.11       2.1591477     0.013470824
      4205.31       2.1687872     0.013631061
      4209.52       2.1810890     0.013315903
      4213.73       2.1855162     0.013265826
      4217.94       2.1915250     0.013163287
      4222.16       2.1937719     0.013109050
      4226.38       2.1926952     0.013012728
      4230.61       2.1916024     0.012954600
      4234.84       2.1909293     0.013103166
      4239.08       2.1901482     0.012802266
      4243.32       2.1867329     0.012756941
      4247.56       2.1827703     0.012651860
      4251.81       2.1854470     0.012603176
      4256.06       2.1914819     0.012503203
      4260.32       2.1865089     0.012451403
      4264.58       2.1763672     0.012356094
      4268.84       2.1704006     0.012301510
      4273.11       2.1667370     0.012014299
      4277.38       2.1676035     0.012153204
      4281.66       2.1666560     0.011872223
      4285.94       2.1674143     0.012006481
      4290.23       2.1562368     0.011731332
      4294.52       2.1404311     0.011861178
      4298.81       2.1292526     0.011591517
      4303.11       2.1175721     0.011717204
      4307.42       2.1040347     0.011670023
      4311.72       2.0857343     0.011574421
      4316.04       2.0781214     0.011525587
      4320.35       2.0712071     0.011249913
      4324.67       2.0646764     0.011382493
      4329.00       2.0675653     0.011111607
      4333.33       2.0738210     0.011240682
      4337.66       2.0827706     0.010974295
      4342.00       2.0879521     0.011100087
      4346.34       2.0932415     0.010837886
      4350.69       2.0959120     0.010960710
      4355.04       2.0981605     0.010702383
      4359.39       2.1068026     0.010822298
      4363.75       2.1130389     0.010567705
      4368.12       2.1178035     0.010685019
      4372.48       2.1181985     0.010433887
      4376.86       2.1180283     0.010548774
      4381.23       2.1201750     0.010300862
      4385.61       2.1253632     0.010248011
      4390.00       2.1265138     0.010168624
      4394.39       2.1292361     0.010116036
      4398.79       2.1353293     0.010037186
      4403.18       2.1393508    0.0098111842
      4407.59       2.1458932    0.0099065621
      4412.00       2.1528194    0.0096833196
      4416.41       2.1605223    0.0097767698
      4420.82       2.1650300    0.0095564318
      4425.25       2.1701216    0.0096477749
      4429.67       2.1738443    0.0094305289
      4434.10       2.1738620    0.0095196287
      4438.54       2.1771285    0.0093056236
      4442.97       2.1835763    0.0093921973
      4447.42       2.1918849    0.0091817518
      4451.86       2.1959585    0.0092660756
      4456.32       2.1981008    0.0090589232
      4460.77       2.1977527    0.0091406732
      4465.24       2.1998305    0.0089371762
      4469.70       2.2060813    0.0090162870
      4474.17       2.2079382    0.0088165369
      4478.65       2.2049193    0.0087369657
      4483.12       2.2025653    0.0086970573
      4487.61       2.2007439    0.0086167729
      4492.09       2.2014405    0.0085787574
      4496.59       2.2025456    0.0084976547
      4501.08       2.1988550    0.0085784704
      4505.58       2.1970945    0.0083797105
      4510.09       2.1965253    0.0084572105
      4514.60       2.1948643    0.0082629659
      4519.12       2.1893191    0.0083371334
      4523.63       2.1816175    0.0081474712
      4528.16       2.1798148    0.0080734435
      4532.69       2.1789385    0.0080333019
      4537.22       2.1754517    0.0079579729
      4541.76       2.1690471    0.0079204941
      4546.30       2.1621398    0.0078438082
      4550.85       2.1590015    0.0078091227
      4555.40       2.1559711    0.0077310311
      4559.95       2.1422177    0.0075508764
      4564.51       2.1278261    0.0076197039
      4569.08       2.1127972    0.0075489394
      4573.65       2.1049388    0.0075098862
      4578.22       2.0946028    0.0074374736
      4582.80       2.0849444    0.0074016422
      4587.38       2.0772844    0.0073275516
      4591.97       2.0729857    0.0071566147
      4596.56       2.0685058    0.0072192475
      4601.16       2.0657883    0.0070482935
      4605.76       2.0580913    0.0071126392
      4610.37       2.0562734    0.0069416000
      4614.98       2.0567513    0.0068797988
      4619.59       2.0567117    0.0069361995
      4624.21       2.0527222    0.0067729111
      4628.84       2.0527090    0.0068312618
      4633.47       2.0548820    0.0066677651
      4638.10       2.0551966    0.0066086824
      4642.74       2.0518372    0.0065644431
      4647.38       2.0425193    0.0065033711
      4652.03       2.0386211    0.0065567338
      4656.68       2.0413610    0.0063999464
      4661.34       2.0430646    0.0063428919
      4666.00       2.0420611    0.0062985096
      4670.67       2.0433034    0.0062393269
      4675.33       2.0460280    0.0061990787
      4680.01       2.0491405    0.0061378635
      4684.69       2.0522510    0.0060821646
      4689.38       2.0551715    0.0060385005
      4694.07       2.0596788    0.0059806356
      4698.76       2.0637708    0.0059413112
      4703.46       2.0638764    0.0058813801
      4708.16       2.0672209    0.0058265419
      4712.87       2.0704682    0.0057843642
      4717.58       2.0722847    0.0057273534
      4722.30       2.0722950    0.0055922629
      4727.03       2.0724562    0.0056305381
      4731.75       2.0748621    0.0055761428
      4736.48       2.0757074    0.0055361626
      4741.22       2.0775565    0.0054795944
      4745.96       2.0792133    0.0053507426
      4750.71       2.0784366    0.0053855794
      4755.46       2.0751590    0.0053312689
      4760.22       2.0763357    0.0052029979
      4764.97       2.0748748    0.0052376708
      4769.74       2.0711039    0.0051155301
      4774.51       2.0653571    0.0050579394
      4779.29       2.0619974    0.0050922490
      4784.07       2.0598695    0.0049711350
      4788.85       2.0587579    0.0049154035
      4793.64       2.0577551    0.0048869082
      4798.43       2.0586387    0.0048293282
      4803.23       2.0597329    0.0048595400
      4808.03       2.0621320    0.0047459146
      4812.84       2.0681191    0.0046899859
      4817.66       2.0738480    0.0047194507
      4822.48       2.0790793    0.0046074618
      4827.30       2.0827170    0.0045530006
      4832.12       2.0869563    0.0045277091
      4836.96       2.0944809    0.0044714553
      4841.79       2.0971342    0.0044183037
      4846.63       2.1010876    0.0043927479
      4851.48       2.1064135    0.0043378144
      4856.33       2.1089826    0.0042858106
      4861.19       2.1150475    0.0042602408
      4866.05       2.1237746    0.0042064861
      4870.92       2.1300840    0.0041554979
      4875.79       2.1403508    0.0040545393
      4880.66       2.1504791    0.0040774309
      4885.55       2.1600433    0.0040273602
      4890.43       2.1676738    0.0039289427
      4895.32       2.1789575    0.0039506289
      4900.22       2.1884489    0.0038518122
      4905.12       2.2000884    0.0038053854
      4910.02       2.2083432    0.0038260741
      4914.94       2.2135920    0.0037297022
      4919.85       2.2209063    0.0036838751
      4924.77       2.2256147    0.0037037609
      4929.70       2.2278670    0.0036097336
      4934.62       2.2286595    0.0035644431
      4939.56       2.2311691    0.0035210786
      4944.50       2.2346891    0.0034919314
      4949.44       2.2384229    0.0034471024
      4954.39       2.2457690    0.0034041182
      4959.35       2.2533179    0.0033763156
      4964.31       2.2595682    0.0033319284
      4969.27       2.2689875    0.0032892718
      4974.24       2.2767981    0.0032629357
      4979.22       2.2863852    0.0032189440
      4984.20       2.2945127    0.0031765969
      4989.18       2.3059615    0.0031358549
      4994.17       2.3161976    0.0031081896
      4999.16       2.3267904    0.0030661506
      5004.16       2.3373496    0.0030255891
      5009.17       2.3505439    0.0029480041
      5014.18       2.3626388    0.0029579352
      5019.19       2.3714759    0.0029175836
      5024.21       2.3814627    0.0028435159
      5029.23       2.3901928    0.0028520630
      5034.26       2.3972744    0.0028119109
      5039.30       2.4048020    0.0027413623
      5044.34       2.4133708    0.0027007562
      5049.39       2.4210719    0.0027086087
      5054.43       2.4272822    0.0026699208
      5059.49       2.4339802    0.0026012652
      5064.55       2.4377267    0.0025621359
      5069.61       2.4431885    0.0025692090
      5074.68       2.4501923    0.0025041890
      5079.76       2.4539815    0.0024652975
      5084.84       2.4551777    0.0024275109
      5089.92       2.4567247    0.0024337193
      5095.01       2.4593265    0.0023709270
      5100.11       2.4630186    0.0023333458
      5105.21       2.4648867    0.0022967805
      5110.31       2.4628461    0.0023020670
      5115.42       2.4596332    0.0022417040
      5120.54       2.4525912    0.0022053341
      5125.66       2.4459378    0.0021698989
      5130.79       2.4443702    0.0021526182
      5135.92       2.4450988    0.0021164540
      5141.05       2.4474302    0.0020811999
      5146.20       2.4469622    0.0020468192
      5151.34       2.4456597    0.0019914047
      5156.49       2.4441774    0.0019951330
      5161.65       2.4438911    0.0019609331
      5166.81       2.4429321    0.0019275437
      5171.98       2.4364901    0.0018745560
      5177.15       2.4311762    0.0018777183
      5182.33       2.4232772    0.0018445158
      5187.51       2.4137767    0.0018120707
      5192.70       2.4019839    0.0017614243
      5197.89       2.3878479    0.0017307144
      5203.09       2.3730879    0.0017319570
      5208.29       2.3563285    0.0017004212
      5213.50       2.3397199    0.0016520365
      5218.72       2.3233959    0.0016221519
      5223.93       2.3103323    0.0015928685
      5229.16       2.2982850    0.0015926259
      5234.39       2.2842669    0.0015464160
      5239.62       2.2702210    0.0015173442
      5244.86       2.2526178    0.0014888343
      5250.11       2.2367932    0.0014608673
      5255.36       2.2236018    0.0014595109
      5260.61       2.2108283    0.0014163283
      5265.87       2.1967975    0.0013885989
      5271.14       2.1835149    0.0013613790
      5276.41       2.1727863    0.0013346543
      5281.69       2.1603081    0.0012950339
      5286.97       2.1474648    0.0012921871
      5292.26       2.1368390    0.0012657267
      5297.55       2.1246217    0.0012403407
      5302.85       2.1126990    0.0012159628
      5308.15       2.0993362    0.0011806351
      5313.46       2.0878980    0.0011775318
      5318.77       2.0795906    0.0011541304
      5324.09       2.0691582    0.0011324065
      5329.42       2.0597821    0.0011129944
      5334.75       2.0505461    0.0010852364
      5340.08       2.0406679    0.0010702686
      5345.42       2.0301845    0.0010583622
