# starting wavelength =        3371.3468
# ending wavelength =        10109.922
# O2 telluric scale =       0.17173864
# O2 telluric shift =       -2.1968249
# H2O telluric scale =        0
# H2O telluric shift =        0
      3371.81      0.60998553     0.013314752
      3375.18      0.61938697     0.011263629
      3378.56      0.62735250    0.0089391957
      3381.94      0.63564488    0.0071745027
      3385.32      0.64146047    0.0062887653
      3388.70      0.64681228    0.0058698680
      3392.09      0.65020834    0.0054637098
      3395.48      0.65099684    0.0051750213
      3398.88      0.65305719    0.0048632570
      3402.28      0.65369211    0.0047156292
      3405.68      0.65482603    0.0046438455
      3409.09      0.65429373    0.0045406360
      3412.49      0.65524585    0.0044485555
      3415.91      0.65652617    0.0043538203
      3419.32      0.65914585    0.0042831675
      3422.74      0.65872026    0.0042615842
      3426.17      0.65874989    0.0041928616
      3429.59      0.65824505    0.0041250630
      3433.02      0.65874706    0.0040890266
      3436.45      0.66042580    0.0040285332
      3439.89      0.65749354    0.0040631210
      3443.33      0.65968759    0.0040578651
      3446.78      0.65266183    0.0040435032
      3450.22      0.65043858    0.0040182080
      3453.67      0.64557611    0.0039905917
      3457.13      0.64380713    0.0039576827
      3460.58      0.64265392    0.0039243581
      3464.04      0.64071767    0.0038855352
      3467.51      0.63822253    0.0038833182
      3470.98      0.63094589    0.0038424864
      3474.45      0.62700548    0.0037771639
      3477.92      0.62603151    0.0037772304
      3481.40      0.62279726    0.0037531681
      3484.88      0.61644711    0.0037441572
      3488.37      0.61113392    0.0037330641
      3491.86      0.60422742    0.0037622370
      3495.35      0.60044570    0.0038461712
      3498.84      0.59786947    0.0039120660
      3502.34      0.59443153    0.0038369783
      3505.84      0.59040926    0.0037995178
      3509.35      0.58316703    0.0037681157
      3512.86      0.57776308    0.0037686066
      3516.37      0.57191966    0.0037689975
      3519.89      0.56559732    0.0037688436
      3523.41      0.56210813    0.0037691547
      3526.93      0.55715657    0.0038001302
      3530.46      0.55486117    0.0038013954
      3533.99      0.55064601    0.0037698112
      3537.53      0.54933431    0.0038005613
      3541.06      0.54623207    0.0038015874
      3544.60      0.54304610    0.0038030681
      3548.15      0.54163874    0.0038011281
      3551.70      0.54133420    0.0038018998
      3555.25      0.54190285    0.0038031095
      3558.80      0.54284731    0.0038351283
      3562.36      0.54077365    0.0038356432
      3565.92      0.54123517    0.0038032979
      3569.49      0.54120866    0.0038361024
      3573.06      0.54701445    0.0038363257
      3576.64      0.54949655    0.0038369686
      3580.21      0.55260370    0.0038697969
      3583.79      0.55885389    0.0038372747
      3587.38      0.56303509    0.0038375988
      3590.96      0.56853815    0.0038700686
      3594.55      0.57830718    0.0038712227
      3598.15      0.58818296    0.0038727781
      3601.75      0.59527583    0.0038706584
      3605.35      0.60415957    0.0038714343
      3608.96      0.61429687    0.0038725976
      3612.56      0.62462165    0.0039067433
      3616.18      0.63619404    0.0039071424
      3619.79      0.64248228    0.0038727947
      3623.41      0.65040793    0.0038739313
      3627.04      0.65694861    0.0039082010
      3630.66      0.66563855    0.0039085690
      3634.29      0.67385179    0.0039093050
      3637.93      0.68169145    0.0039438682
      3641.57      0.68621787    0.0039097572
      3645.21      0.69102716    0.0039100550
      3648.86      0.69644644    0.0039441335
      3652.50      0.69933067    0.0039451488
      3656.16      0.70310604    0.0039465115
      3659.81      0.70724259    0.0039482178
      3663.47      0.71111534    0.0039455919
      3667.14      0.71341963    0.0039464553
      3670.80      0.71540788    0.0039476419
      3674.48      0.71852143    0.0039839511
      3678.15      0.72213065    0.0039843124
      3681.83      0.72577941    0.0039850032
      3685.51      0.73045082    0.0040213182
      3689.20      0.73646113    0.0039859323
      3692.88      0.74226654    0.0039860912
      3696.58      0.75056403    0.0039865613
      3700.27      0.75715931    0.0040226250
      3703.98      0.76284916    0.0040237228
      3707.68      0.76993618    0.0040251230
      3711.39      0.77668280    0.0040268226
      3715.10      0.78293606    0.0040635361
      3718.81      0.79083697    0.0040249793
      3722.53      0.79850628    0.0040260654
      3726.26      0.80496008    0.0040652845
      3729.98      0.80797566    0.0040654884
      3733.71      0.81011779    0.0040659833
      3737.45      0.81727566    0.0040667433
      3741.18      0.82391049    0.0041051181
      3744.93      0.82937325    0.0041064577
      3748.67      0.83368370    0.0041080668
      3752.42      0.83908770    0.0040685251
      3756.17      0.84333975    0.0041065037
      3759.93      0.84857898    0.0041074241
      3763.69      0.85158300    0.0041086017
      3767.45      0.85410095    0.0041100136
      3771.22      0.85781056    0.0041504330
      3774.99      0.86105514    0.0041509315
      3778.77      0.86673093    0.0041516737
      3782.54      0.87165312    0.0041526546
      3786.33      0.87486167    0.0041934621
      3790.11      0.88082963    0.0041535958
      3793.90      0.88830063    0.0041538748
      3797.70      0.89454525    0.0041543794
      3801.50      0.90036377    0.0041946551
      3805.30      0.90653587    0.0041956027
      3809.10      0.91556321    0.0041967601
      3812.91      0.92668971    0.0041981209
      3816.73      0.93633558    0.0041996803
      3820.54      0.94715988    0.0042421352
      3824.36      0.95708071    0.0042427589
      3828.19      0.96575018    0.0042435814
      3832.02      0.97483559    0.0042445943
      3835.85      0.99078470    0.0042878679
      3839.68       1.0069014    0.0042892909
      3843.52       1.0220731    0.0042908966
      3847.37       1.0384298    0.0042466565
      3851.22       1.0564873    0.0042472737
      3855.07       1.0768421    0.0042901007
      3858.92       1.0954998    0.0042910617
      3862.78       1.1132263    0.0042921861
      3866.64       1.1354719    0.0042934686
      3870.51       1.1576558    0.0042948961
      3874.38       1.1790662    0.0043412214
      3878.26       1.2017664    0.0043417277
      3882.13       1.2243450    0.0043423882
      3886.02       1.2501951    0.0043431945
      3889.90       1.2754779    0.0043441376
      3893.79       1.3024934    0.0043900167
      3897.69       1.3312148    0.0043912562
      3901.59       1.3612954    0.0043926216
      3905.49       1.3898136    0.0043941017
      3909.39       1.4183646    0.0043957071
      3913.30       1.4457634    0.0044440528
      3917.22       1.4729378    0.0044447418
      3921.13       1.5006459    0.0044455510
      3925.06       1.5283144    0.0044464719
      3928.98       1.5554753    0.0044475016
      3932.91       1.5806729    0.0044964829
      3936.84       1.6066427    0.0044977390
      3940.78       1.6294824    0.0044990974
      3944.72       1.6481911    0.0045005384
      3948.67       1.6621878    0.0045020618
      3952.61       1.6750107    0.0045036718
      3956.57       1.6863592    0.0045553471
      3960.52       1.6919234    0.0045560964
      3964.48       1.6953125    0.0045569296
      3968.45       1.6984167    0.0045578432
      3972.42       1.6977520    0.0045588330
      3976.39       1.6946551    0.0045598899
      3980.37       1.6920030    0.0046122719
      3984.35       1.6894185    0.0046134837
      3988.33       1.6845299    0.0046147466
      3992.32       1.6788871    0.0046160638
      3996.31       1.6730093    0.0046174249
      4000.31       1.6679734    0.0046188311
      4004.31       1.6632901    0.0046766026
      4008.31       1.6607169    0.0046772764
      4012.32       1.6571077    0.0046780167
      4016.33       1.6541356    0.0046788075
      4020.35       1.6520428    0.0046796490
      4024.37       1.6443494    0.0046805323
      4028.40       1.6364997    0.0046814548
      4032.42       1.6283303    0.0048012239
      4036.46       1.6208960    0.0048022402
      4040.50       1.6107990    0.0048032859
      4044.54       1.6017522    0.0048043600
      4048.58       1.5926671    0.0048054564
      4052.63       1.5813468    0.0048065710
      4056.68       1.5711729    0.0048077066
      4060.74       1.5610122    0.0048088554
      4064.80       1.5531860    0.0047461242
      4068.86       1.5437540    0.0047472653
      4072.93       1.5352303    0.0047484090
      4077.01       1.5288794    0.0047495559
      4081.08       1.5256972    0.0047507085
      4085.17       1.5218338    0.0047518529
      4089.25       1.5201218    0.0047529901
      4093.34       1.5165404    0.0047541357
      4097.43       1.5109328    0.0047552673
      4101.53       1.5036199    0.0047563838
      4105.63       1.4938887    0.0047574945
      4109.74       1.4914230    0.0047585946
      4113.85       1.4920029    0.0047596950
      4117.96       1.4933123    0.0047607738
      4122.08       1.4945745    0.0047618429
      4126.20       1.4961203    0.0047629076
      4130.33       1.4964980    0.0047639532
      4134.46       1.4998575    0.0047649867
      4138.59       1.5021542    0.0047660202
      4142.73       1.5065353    0.0047670327
      4146.88       1.5125961    0.0047680388
      4151.02       1.5186708    0.0047690354
      4155.18       1.5257842    0.0047700308
      4159.33       1.5295241    0.0047710229
      4163.49       1.5314052    0.0047720087
      4167.65       1.5375660    0.0047729908
      4171.82       1.5395286    0.0047739766
      4175.99       1.5415534    0.0047748614
      4180.17       1.5437517    0.0047204182
      4184.35       1.5464177    0.0047214340
      4188.54       1.5519802    0.0047224405
      4192.72       1.5557660    0.0047234641
      4196.92       1.5597632    0.0047245025
      4201.11       1.5590109    0.0047255611
      4205.31       1.5602004    0.0047266438
      4209.52       1.5590305    0.0047277514
      4213.73       1.5609514    0.0047288900
      4217.94       1.5599740    0.0047300672
      4222.16       1.5599071    0.0047312798
      4226.38       1.5589227    0.0047325379
      4230.61       1.5579385    0.0047338427
      4234.84       1.5592423    0.0047352024
      4239.08       1.5580441    0.0047366161
      4243.32       1.5584647    0.0047380974
      4247.56       1.5608503    0.0046809783
      4251.81       1.5615928    0.0046816736
      4256.06       1.5637687    0.0046824097
      4260.32       1.5671138    0.0046831989
      4264.58       1.5696988    0.0047439448
      4268.84       1.5722261    0.0047448618
      4273.11       1.5782258    0.0047458547
      4277.38       1.5839865    0.0047469242
      4281.66       1.5879664    0.0047480861
      4285.94       1.5929444    0.0047493394
      4290.23       1.6011763    0.0046960086
      4294.52       1.6001683    0.0046962480
      4298.81       1.6009107    0.0046965814
      4303.11       1.6026087    0.0046969931
      4307.42       1.6038246    0.0046975119
      4311.72       1.6054640    0.0046981328
      4316.04       1.6071970    0.0046988721
      4320.35       1.6072828    0.0046997381
      4324.67       1.6098863    0.0047007317
      4329.00       1.6161964    0.0046497095
      4333.33       1.6232726    0.0047095272
      4337.66       1.6315248    0.0047094605
      4342.00       1.6393059    0.0047095334
      4346.34       1.6450195    0.0047097600
      4350.69       1.6527801    0.0047101408
      4355.04       1.6605221    0.0047107118
      4359.39       1.6686213    0.0047114426
      4363.75       1.6745455    0.0046600905
      4368.12       1.6842426    0.0047806610
      4372.48       1.6940128    0.0047441280
      4376.86       1.6904556    0.0046739663
      4381.23       1.6994445    0.0047246196
      4385.61       1.7069641    0.0047730033
      4390.00       1.7138667    0.0048438093
      4394.39       1.7219412    0.0048897019
      4398.79       1.7333829    0.0049623044
      4403.18       1.7482899    0.0050236436
      4407.59       1.7683128    0.0050670706
      4412.00       1.7900594    0.0050620645
      4416.41       1.8146857    0.0050393148
      4420.82       1.8392811    0.0049973332
      4425.25       1.8630090    0.0049277649
      4429.67       1.8905541    0.0048518468
      4434.10       1.9188622    0.0047778582
      4438.54       1.9457611    0.0047150751
      4442.97       1.9733140    0.0046751037
      4447.42       2.0013900    0.0046388455
      4451.86       2.0374054    0.0049046431
      4456.32       2.0679196    0.0047515197
      4460.77       2.0993252    0.0046894116
      4465.24       2.1308818    0.0046908445
      4469.70       2.1606663    0.0046391815
      4474.17       2.1927993    0.0046391225
      4478.65       2.2234576    0.0046394665
      4483.12       2.2521340    0.0046966800
      4487.61       2.2829187    0.0046978000
      4492.09       2.3155786    0.0046474345
      4496.59       2.3491124    0.0046470342
      4501.08       2.3815868    0.0046470597
      4505.58       2.4133592    0.0046475095
      4510.09       2.4458505    0.0047050026
      4514.60       2.4787240    0.0046553284
      4519.12       2.5088434    0.0046546663
      4523.63       2.5397641    0.0046544864
      4528.16       2.5699543    0.0046547846
      4532.69       2.5988826    0.0046555865
      4537.22       2.6306699    0.0046627132
      4541.76       2.6567166    0.0046619122
      4546.30       2.6845474    0.0046616450
      4550.85       2.7082358    0.0046619282
      4555.40       2.7295783    0.0046132935
      4559.95       2.7505880    0.0046695100
      4564.51       2.7666194    0.0046687279
      4569.08       2.7788653    0.0046685428
      4573.65       2.7897264    0.0046689704
      4578.22       2.7963401    0.0046204672
      4582.80       2.7983749    0.0046221227
      4587.38       2.7947373    0.0046752366
      4591.97       2.7878982    0.0046753092
      4596.56       2.7771272    0.0046264423
      4601.16       2.7606045    0.0046278668
      4605.76       2.7405465    0.0046818252
      4610.37       2.7178592    0.0046319220
      4614.98       2.6904589    0.0046324958
      4619.59       2.6562452    0.0046337728
      4624.21       2.6196833    0.0046357669
      4628.84       2.5791043    0.0046380792
      4633.47       2.5424434    0.0046385490
      4638.10       2.5016890    0.0046397769
      4642.74       2.4582473    0.0046417811
      4647.38       2.4160839    0.0046440980
      4652.03       2.3731171    0.0046445693
      4656.68       2.3266811    0.0046458544
      4661.34       2.2817753    0.0045967401
      4666.00       2.2390454    0.0045965388
      4670.67       2.1960952    0.0046505758
      4675.33       2.1542779    0.0046520442
      4680.01       2.1166960    0.0046022993
      4684.69       2.0791639    0.0046022832
      4689.38       2.0404022    0.0046566317
      4694.07       2.0066223    0.0046083449
      4698.76       1.9730154    0.0046077383
      4703.46       1.9418584    0.0046080408
      4708.16       1.9088907    0.0046628457
      4712.87       1.8799022    0.0046134029
      4717.58       1.8550094    0.0046131896
      4722.30       1.8350811    0.0046675780
      4727.03       1.8154185    0.0046191561
      4731.75       1.7965571    0.0046184797
      4736.48       1.7798881    0.0046188334
      4741.22       1.7629791    0.0046249279
      4745.96       1.7486220    0.0046238307
      4750.71       1.7387448    0.0046238194
      4755.46       1.7338857    0.0045778578
      4760.22       1.7290900    0.0046291664
      4764.97       1.7257625    0.0046288448
      4769.74       1.7248345    0.0045825784
      4774.51       1.7235737    0.0046344246
      4779.29       1.7251492    0.0046338531
      4784.07       1.7296814    0.0045873510
      4788.85       1.7341879    0.0046395601
      4793.64       1.7424240    0.0046388159
      4798.43       1.7521064    0.0045921449
      4803.23       1.7593377    0.0045938931
      4808.03       1.7671801    0.0046437032
      4812.84       1.7754211    0.0045969409
      4817.66       1.7851943    0.0045987074
      4822.48       1.7956472    0.0046011814
      4827.30       1.8072441    0.0046017384
      4832.12       1.8221971    0.0046035987
      4836.96       1.8400678    0.0046058672
      4841.79       1.8585609    0.0046065347
      4846.63       1.8795670    0.0046085882
      4851.48       1.8950731    0.0046105038
      4856.33       1.9140990    0.0046113952
      4861.19       1.9184989    0.0045645923
      4866.05       1.9228060    0.0046151257
      4870.92       1.9274445    0.0046163261
      4875.79       1.9297013    0.0045688669
      4880.66       1.9343975    0.0046197861
      4885.55       1.9405182    0.0046213955
      4890.43       1.9414556    0.0045731547
      4895.32       1.9378147    0.0046245527
      4900.22       1.9384793    0.0045779607
      4905.12       1.9404319    0.0045775180
      4910.02       1.9401404    0.0046295097
      4914.94       1.9430833    0.0045818989
      4919.85       1.9505312    0.0046329700
      4924.77       1.9651154    0.0045868040
      4929.70       1.9788394    0.0045859985
      4934.62       2.0002250    0.0045921803
      4939.56       2.0147163    0.0045904305
      4944.50       2.0252743    0.0045903772
      4949.44       2.0326736    0.0045952497
      4954.39       2.0270858    0.0045943237
      4959.35       2.0218461    0.0045502697
      4964.31       2.0211180    0.0045986417
      4969.27       2.0222284    0.0045537379
      4974.24       2.0250669    0.0046032721
      4979.22       2.0262597    0.0046024839
      4984.20       2.0270156    0.0045585929
      4989.18       2.0321208    0.0046065828
      4994.17       2.0389879    0.0045619367
      4999.16       2.0422905    0.0046109125
      5004.16       2.0479353    0.0045655173
      5009.17       2.0546766    0.0045671133
      5014.18       2.0640889    0.0045692830
      5019.19       2.0734544    0.0045702786
      5024.21       2.0847469    0.0046183555
      5029.23       2.0925257    0.0045736409
      5034.26       2.0960791    0.0046224714
      5039.30       2.0935168    0.0045771447
      5044.34       2.0888864    0.0045790662
      5049.39       2.0824471    0.0045807623
      5054.43       2.0767619    0.0045822261
      5059.49       2.0681368    0.0045844655
      5064.55       2.0667634    0.0045855052
      5069.61       2.0653455    0.0045398552
      5074.68       2.0638101    0.0045888712
      5079.76       2.0715656    0.0045435785
      5084.84       2.0824826    0.0045922891
      5089.92       2.0925176    0.0045473111
      5095.01       2.1030899    0.0045957661
      5100.11       2.1192241    0.0045510210
      5105.21       2.1368095    0.0045992537
      5110.31       2.1586943    0.0045547081
      5115.42       2.1828259    0.0046027650
      5120.54       2.2099551    0.0045583465
      5125.66       2.2352336    0.0045577408
      5130.79       2.2615725    0.0045619330
      5135.92       2.2920386    0.0045611920
      5141.05       2.3254040    0.0045654504
      5146.20       2.3591501    0.0045646328
      5151.34       2.3925230    0.0045689143
      5156.49       2.4266068    0.0045680567
      5161.65       2.4651145    0.0045722919
      5166.81       2.5028506    0.0045714644
      5171.98       2.5450758    0.0045756162
