# starting wavelength =        3435.1876
# ending wavelength =        8924.6185
# O2 telluric scale =       0.14368775
# O2 telluric shift =        10.505151
# H2O telluric scale =        0
# H2O telluric shift =        0
      3436.45      0.49603029     0.052235115
      3439.89      0.48433307     0.051802302
      3443.33      0.46361693     0.050894314
      3446.78      0.45328078     0.049955244
      3450.22      0.43366284     0.049076322
      3453.67      0.41963138     0.048251142
      3457.13      0.43742652     0.047781094
      3460.58      0.46052375     0.046894271
      3464.04      0.46583067     0.044968503
      3467.51      0.47085185     0.044199600
      3470.98      0.48969307     0.043956299
      3474.45      0.52440025     0.043147366
      3477.92      0.53803359     0.042455391
      3481.40      0.55491015     0.041752273
      3484.88      0.55562511     0.041580763
      3488.37      0.57130086     0.040946546
      3491.86      0.55926993     0.039310255
      3495.35      0.55150791     0.038715077
      3498.84      0.54897872     0.038454606
      3502.34      0.54828805     0.037819158
      3505.84      0.53395352     0.037238556
      3509.35      0.53369949     0.036606497
      3512.86      0.52507713     0.036307763
      3516.37      0.49882784     0.034795710
      3519.89      0.49653211     0.034208856
      3523.41      0.50501291     0.033628912
      3526.93      0.50011055     0.033554046
      3530.46      0.49470635     0.033084183
      3533.99      0.50924068     0.032578047
      3537.53      0.51645002     0.032143817
      3541.06      0.53580154     0.031395115
      3544.60      0.53746216     0.030986322
      3548.15      0.53590708     0.030608069
      3551.70      0.54536156     0.030672480
      3555.25      0.55925486     0.030283111
      3558.80      0.57190986     0.029891828
      3562.36      0.57076386     0.028810924
      3565.92      0.56054547     0.028933992
      3569.49      0.55690257     0.028582899
      3573.06      0.56458906     0.028221338
      3576.64      0.56302669     0.027940692
      3580.21      0.55576682     0.028081408
      3583.79      0.54981533     0.027780913
      3587.38      0.54220582     0.026840113
      3590.96      0.55742177     0.026569652
      3594.55      0.61563695     0.026729530
      3598.15      0.62279170     0.026454541
      3601.75      0.57525873     0.025538159
      3605.35      0.56881181     0.025311140
      3608.96      0.55863294     0.025598625
      3612.56      0.56518656     0.025395019
      3616.18      0.55066337     0.024721918
      3619.79      0.55382639     0.024566838
      3623.41      0.57035371     0.024383016
      3627.04      0.57641543     0.024579235
      3630.66      0.59023151     0.023750301
      3634.29      0.60375068     0.023503548
      3637.93      0.61297661     0.023263499
      3641.57      0.64098861     0.023280985
      3645.21      0.67031472     0.022469666
      3648.86      0.69224577     0.022224214
      3652.50      0.72278722     0.021999102
      3656.16      0.75429667     0.021810479
      3659.81      0.80070953     0.021466690
      3663.47      0.82460182     0.021325723
      3667.14      0.81028292     0.021119044
      3670.80      0.79933338     0.020917060
      3674.48      0.81581701     0.020572695
      3678.15      0.81660027     0.020417402
      3681.83      0.81826243     0.020266529
      3685.51      0.81894834     0.019635566
      3689.20      0.82199979     0.019828364
      3692.88      0.83538513     0.019665535
      3696.58      0.84759064     0.019552867
      3700.27      0.86436915     0.019077921
      3703.98      0.88363757     0.019348329
      3707.68      0.89783152     0.019293697
      3711.39      0.91104391     0.019248113
      3715.10      0.92496058     0.018713393
      3718.81      0.93688361     0.018941929
      3722.53      0.94459363     0.018786263
      3726.26      0.93561924     0.018134439
      3729.98      0.93443656     0.017917672
      3733.71      0.92351089     0.018013608
      3737.45      0.92449604     0.017781097
      3741.18      0.91644867     0.017107381
      3744.93      0.91035264     0.016905524
      3748.67      0.89290517     0.017036703
      3752.42      0.89321731     0.016524267
      3756.17      0.89426677     0.016397774
      3759.93      0.90095730     0.016552365
      3763.69      0.91171930     0.016429033
      3767.45      0.92635670     0.015966399
      3771.22      0.94187639     0.015862705
      3774.99      0.96289863     0.016057496
      3778.77      0.96641148     0.015668026
      3782.54      0.97239646     0.015574304
      3786.33      0.98251334     0.015484181
      3790.11      0.98560778     0.015363007
      3793.90      0.99118065     0.015245633
      3797.70      0.99415974     0.015139993
      3801.50      0.99449120     0.015007411
      3805.30      0.99483548     0.014891256
      3809.10       1.0005198     0.014775414
      3812.91       1.0043506     0.014679771
      3816.73       1.0136672     0.014557088
      3820.54       1.0229607     0.014473643
      3824.36       1.0335146     0.014406035
      3828.19       1.0469175     0.014361289
      3832.02       1.0588152     0.014305723
      3835.85       1.0774437     0.014244390
      3839.68       1.0966262     0.013935638
      3843.52       1.1172782     0.014147893
      3847.37       1.1337053     0.014100288
      3851.22       1.1481081     0.013812827
      3855.07       1.1663824     0.014033059
      3858.92       1.1799564     0.013990340
      3862.78       1.1949212     0.013688524
      3866.64       1.2155007     0.013907863
      3870.51       1.2289936     0.013862118
      3874.38       1.2402049     0.013563124
      3878.26       1.2515388     0.013788891
      3882.13       1.2655801     0.013717838
      3886.02       1.2782098     0.013395280
      3889.90       1.2857372     0.013357017
      3893.79       1.2895101     0.013530598
      3897.69       1.3001660     0.013203721
      3901.59       1.3037134     0.013159113
      3905.49       1.2993748     0.013336098
      3909.39       1.3062396     0.013003618
      3913.30       1.3097125     0.012949279
      3917.22       1.3141034     0.013101299
      3921.13       1.3170452     0.012793749
      3925.06       1.3213660     0.012744626
      3928.98       1.3278263     0.012892309
      3932.91       1.3331453     0.012584784
      3936.84       1.3338711     0.012540998
      3940.78       1.3375713     0.012470298
      3944.72       1.3313293     0.012413962
      3948.67       1.3267167     0.012371620
      3952.61       1.3170988     0.012308160
      3956.57       1.3103428     0.012272557
      3960.52       1.3110686     0.012238630
      3964.48       1.3111034     0.012170023
      3968.45       1.3116733     0.012126422
      3972.42       1.3173160     0.012077706
      3976.39       1.3153276     0.011977252
      3980.37       1.3098634     0.011926332
      3984.35       1.3109575     0.011595704
      3988.33       1.3099592     0.011716466
      3992.32       1.3096464     0.011642879
      3996.31       1.3162161     0.011299062
      4000.31       1.3209352     0.011411459
      4004.31       1.3197889     0.011348914
      4008.31       1.3209251     0.011039664
      4012.32       1.3184603     0.011183457
      4016.33       1.3191535     0.010931902
      4020.35       1.3109646     0.011040021
      4024.37       1.3061923     0.011003000
      4028.40       1.3053220     0.010738851
      4032.42       1.3059092     0.010884747
      4036.46       1.3159516     0.010608610
      4040.50       1.3136842     0.010548122
      4044.54       1.3105645     0.010682524
      4048.58       1.3119548     0.010398005
      4052.63       1.3093518     0.010333928
      4056.68       1.2988828     0.010269498
      4060.74       1.2912129     0.010205667
      4064.80       1.2815128     0.010334796
      4068.86       1.2776543     0.010074750
      4072.93       1.2750259     0.010009059
      4077.01       1.2637643    0.0099462136
      4081.08       1.2562116    0.0098831489
      4085.17       1.2518818    0.0098225417
      4089.25       1.2428765    0.0097428394
      4093.34       1.2344204    0.0096797758
      4097.43       1.2258131    0.0096129211
      4101.53       1.2184836    0.0095493024
      4105.63       1.2138599    0.0094929370
      4109.74       1.2081527    0.0094207459
      4113.85       1.2033056    0.0093617277
      4117.96       1.1949405    0.0093064062
      4122.08       1.1913067    0.0092482137
      4126.20       1.1916809    0.0091964569
      4130.33       1.1878993    0.0091312587
      4134.46       1.1830036    0.0090814094
      4138.59       1.1746969    0.0090378126
      4142.73       1.1733031    0.0089836327
      4146.88       1.1748177    0.0087756506
      4151.02       1.1757865    0.0088765414
      4155.18       1.1724119    0.0088341014
      4159.33       1.1723023    0.0087885139
      4163.49       1.1669447    0.0087461081
      4167.65       1.1610734    0.0085565494
      4171.82       1.1581010    0.0086611268
      4175.99       1.1616974    0.0084665740
      4180.17       1.1617305    0.0085734479
      4184.35       1.1636524    0.0083896213
      4188.54       1.1693519    0.0083627389
      4192.72       1.1727784    0.0084786183
      4196.92       1.1761741    0.0083172033
      4201.11       1.1802078    0.0084437872
      4205.31       1.1839499    0.0082728366
      4209.52       1.1792489    0.0082648804
      4213.73       1.1760664    0.0082267134
      4217.94       1.1752045    0.0082022347
      4222.16       1.1730737    0.0081547166
      4226.38       1.1718243    0.0081198856
      4230.61       1.1669492    0.0082111175
      4234.84       1.1566070    0.0080360307
      4239.08       1.1551283    0.0080272863
      4243.32       1.1420471    0.0079621617
      4247.56       1.1392386    0.0079398109
      4251.81       1.1388916    0.0079137899
      4256.06       1.1425236    0.0079054098
      4260.32       1.1441274    0.0078917661
      4264.58       1.1444643    0.0078884781
      4268.84       1.1522665    0.0078742602
      4273.11       1.1536135    0.0078655980
      4277.38       1.1536367    0.0077150359
      4281.66       1.1576095    0.0078271773
      4285.94       1.1581990    0.0076614259
      4290.23       1.1543051    0.0077715732
      4294.52       1.1549493    0.0076022305
      4298.81       1.1561651    0.0076958609
      4303.11       1.1561019    0.0076713829
      4307.42       1.1592244    0.0076194168
      4311.72       1.1581672    0.0076103275
      4316.04       1.1565563    0.0074720473
      4320.35       1.1627763    0.0076078483
      4324.67       1.1640882    0.0074578761
      4329.00       1.1722456    0.0075764736
      4333.33       1.1799526    0.0074361930
      4337.66       1.1882892    0.0075614535
      4342.00       1.1974818    0.0074229579
      4346.34       1.2067794    0.0075484830
      4350.69       1.2185320    0.0074117001
      4355.04       1.2277902    0.0075388538
      4359.39       1.2386095    0.0074029558
      4363.75       1.2512456    0.0075245946
      4368.12       1.2582778    0.0073930541
      4372.48       1.2650867    0.0075210728
      4376.86       1.2711435    0.0073880873
      4381.23       1.2788676    0.0075115930
      4385.61       1.2866502    0.0073697930
      4390.00       1.2936068    0.0073565215
      4394.39       1.2968990    0.0073558776
      4398.79       1.3036339    0.0073470472
      4403.18       1.3143645    0.0073489502
      4407.59       1.3227784    0.0072360807
      4412.00       1.3347661    0.0073512494
      4416.41       1.3461663    0.0072379797
      4420.82       1.3597656    0.0073624241
      4425.25       1.3743923    0.0072508591
      4429.67       1.3891118    0.0073782366
      4434.10       1.4049190    0.0072712390
      4438.54       1.4170277    0.0074055458
      4442.97       1.4326809    0.0072954391
      4447.42       1.4479078    0.0074221969
      4451.86       1.4610010    0.0073154566
      4456.32       1.4758875    0.0074416561
      4460.77       1.4924985    0.0073309703
      4465.24       1.5060438    0.0074555415
      4469.70       1.5173094    0.0073482108
      4474.17       1.5303601    0.0074710352
      4478.65       1.5440130    0.0073620488
      4483.12       1.5607718    0.0073669154
      4487.61       1.5728010    0.0073723353
      4492.09       1.5848547    0.0073811747
      4496.59       1.5954520    0.0073852777
      4501.08       1.6057607    0.0073822772
      4505.58       1.6162508    0.0075003066
      4510.09       1.6238998    0.0073709281
      4514.60       1.6280420    0.0074842947
      4519.12       1.6302692    0.0073512154
      4523.63       1.6277329    0.0073381151
      4528.16       1.6263665    0.0073239995
      4532.69       1.6246280    0.0072979818
      4537.22       1.6235047    0.0072810354
      4541.76       1.6213337    0.0072464072
      4546.30       1.6130599    0.0072328387
      4550.85       1.6032135    0.0071971886
      4555.40       1.5958297    0.0071814637
      4559.95       1.5876255    0.0071404969
      4564.51       1.5754460    0.0069960683
      4569.08       1.5661290    0.0070806630
      4573.65       1.5555934    0.0070420630
      4578.22       1.5471636    0.0070191982
      4582.80       1.5377804    0.0069812238
      4587.38       1.5303231    0.0068433476
      4591.97       1.5263391    0.0069199193
      4596.56       1.5219158    0.0067819808
      4601.16       1.5126406    0.0068686272
      4605.76       1.5070007    0.0067310714
      4610.37       1.4981139    0.0068193909
      4614.98       1.4875583    0.0067866157
      4619.59       1.4776080    0.0066461505
      4624.21       1.4680144    0.0067191246
      4628.84       1.4524999    0.0065739213
      4633.47       1.4369653    0.0066474517
      4638.10       1.4223700    0.0064963117
      4642.74       1.4075437    0.0064499187
      4647.38       1.3933364    0.0064154313
      4652.03       1.3768287    0.0063745980
      4656.68       1.3627517    0.0064422335
      4661.34       1.3532214    0.0063044982
      4666.00       1.3340206    0.0062838861
      4670.67       1.3195031    0.0062880452
      4675.33       1.3072887    0.0062870752
      4680.01       1.2980134    0.0062258767
      4684.69       1.2986507    0.0061672163
      4689.38       1.2945397    0.0062024711
      4694.07       1.2895454    0.0062178646
      4698.76       1.2813812    0.0062890911
      4703.46       1.2748271    0.0062352102
      4708.16       1.2662295    0.0063624077
      4712.87       1.2551144    0.0063832661
      4717.58       1.2451327    0.0063686596
      4722.30       1.2331972    0.0063380779
      4727.03       1.2243948    0.0061884903
      4731.75       1.2201357    0.0062117895
      4736.48       1.2146981    0.0061128216
      4741.22       1.2146625    0.0059484744
      4745.96       1.2111738    0.0059503021
      4750.71       1.2087201    0.0058191771
      4755.46       1.2002391    0.0058798187
      4760.22       1.2001316    0.0059501571
      4764.97       1.2025205    0.0058363397
      4769.74       1.2082065    0.0058564356
      4774.51       1.2156150    0.0057457481
      4779.29       1.2200175    0.0057363066
      4784.07       1.2265453    0.0058158917
      4788.85       1.2324865    0.0057265184
      4793.64       1.2407204    0.0057352663
      4798.43       1.2416162    0.0058089187
      4803.23       1.2475879    0.0057183980
      4808.03       1.2510920    0.0057209701
      4812.84       1.2547392    0.0057235141
      4817.66       1.2573745    0.0057261065
      4822.48       1.2603428    0.0057210312
      4827.30       1.2610789    0.0057150721
      4832.12       1.2633098    0.0057037696
      4836.96       1.2584032    0.0057063350
      4841.79       1.2561601    0.0057055975
      4846.63       1.2550051    0.0057099567
      4851.48       1.2570645    0.0056240725
      4856.33       1.2562660    0.0057146970
      4861.19       1.2608553    0.0057190324
      4866.05       1.2659156    0.0056351299
      4870.92       1.2682994    0.0057266955
      4875.79       1.2759167    0.0057258989
      4880.66       1.2842479    0.0056336287
      4885.55       1.2919411    0.0057152503
      4890.43       1.2997381    0.0057078817
      4895.32       1.3051735    0.0056139660
      4900.22       1.3111138    0.0056959327
      4905.12       1.3183918    0.0056923416
      4910.02       1.3176837    0.0056078565
      4914.94       1.3188802    0.0056904214
      4919.85       1.3207263    0.0056763994
      4924.77       1.3209377    0.0055807751
      4929.70       1.3201998    0.0055823199
      4934.62       1.3193693    0.0056634946
      4939.56       1.3201497    0.0055798098
      4944.50       1.3206200    0.0055832541
      4949.44       1.3202009    0.0056650244
      4954.39       1.3201078    0.0055787225
      4959.35       1.3199271    0.0055859200
      4964.31       1.3209382    0.0056689638
      4969.27       1.3225414    0.0055683993
      4974.24       1.3286466    0.0055620486
      4979.22       1.3317377    0.0055765401
      4984.20       1.3337906    0.0055744289
      4989.18       1.3365167    0.0055951905
      4994.17       1.3404830    0.0056188555
      4999.16       1.3436609    0.0056175944
      5004.16       1.3431438    0.0056364283
      5009.17       1.3461483    0.0056412414
      5014.18       1.3469090    0.0055468468
      5019.19       1.3456117    0.0056108877
      5024.21       1.3474215    0.0055817790
      5029.23       1.3448447    0.0055562823
      5034.26       1.3427950    0.0054552962
      5039.30       1.3413888    0.0055060930
      5044.34       1.3388076    0.0054951962
      5049.39       1.3394593    0.0054142187
      5054.43       1.3427907    0.0054220430
      5059.49       1.3471242    0.0055019278
      5064.55       1.3514868    0.0054246639
      5069.61       1.3598491    0.0054240340
      5074.68       1.3673814    0.0054336802
      5079.76       1.3767066    0.0055216041
      5084.84       1.3866850    0.0054542822
      5089.92       1.3969045    0.0054711443
      5095.01       1.4114219    0.0054893544
      5100.11       1.4226681    0.0055000874
      5105.21       1.4367280    0.0055178084
      5110.31       1.4511845    0.0055386349
      5115.42       1.4658761    0.0055612424
      5120.54       1.4814244    0.0055701569
      5125.66       1.4957255    0.0055891534
      5130.79       1.5102664    0.0056111004
      5135.92       1.5243846    0.0056364428
      5141.05       1.5400436    0.0056468335
      5146.20       1.5563622    0.0056673577
      5151.34       1.5720666    0.0056896008
      5156.49       1.5838880    0.0057161558
      5161.65       1.5980662    0.0056529318
      5166.81       1.6149537    0.0057479419
      5171.98       1.6328830    0.0057682442
      5177.15       1.6503217    0.0057931451
      5182.33       1.6643170    0.0057325331
      5187.51       1.6791820    0.0058352855
      5192.70       1.6968190    0.0058575680
      5197.89       1.7106994    0.0058840423
      5203.09       1.7269210    0.0058142443
      5208.29       1.7422417    0.0058360025
      5213.50       1.7566395    0.0059306391
      5218.72       1.7666928    0.0059469069
      5223.93       1.7800846    0.0058649364
      5229.16       1.7933577    0.0058750770
      5234.39       1.8005173    0.0058869172
      5239.62       1.8079881    0.0059714217
      5244.86       1.8127938    0.0058840808
      5250.11       1.8160369    0.0058885037
      5255.36       1.8184886    0.0058962633
      5260.61       1.8211155    0.0059059520
      5265.87       1.8250902    0.0058910825
      5271.14       1.8288029    0.0058880807
