# starting wavelength =        4115.0263
# ending wavelength =        8924.1534
# O2 telluric scale =        0
# O2 telluric shift =        0
# H2O telluric scale =        0
# H2O telluric shift =        0
      4117.96      0.77425429     0.022942822
      4122.08      0.77842149     0.019486264
      4126.20      0.77827210     0.016778903
      4130.33      0.78035050     0.014662757
      4134.46      0.78550675     0.013015783
      4138.59      0.79050219     0.011739435
      4142.73      0.78838104     0.010751133
      4146.88      0.78645094    0.0099863039
      4151.02      0.78385104    0.0093922584
      4155.18      0.77965694    0.0089273204
      4159.33      0.77534853    0.0085595116
      4163.49      0.77503366    0.0082640199
      4167.65      0.77490311    0.0080228337
      4171.82      0.77390162    0.0078225734
      4175.99      0.77722217    0.0076533529
      4180.17      0.77866986    0.0075082365
      4184.35      0.77883419    0.0073821760
      4188.54      0.77942964    0.0072715655
      4192.72      0.77927595    0.0072193974
      4196.92      0.78320538    0.0072141842
      4201.11      0.78316073    0.0072575439
      4205.31      0.77923779    0.0072981620
      4209.52      0.78532398    0.0072930244
      4213.73      0.79314578    0.0072879540
      4217.94      0.79758020    0.0072829583
      4222.16      0.80766742    0.0073264885
      4226.38      0.81313721    0.0073216162
      4230.61      0.81928730    0.0073168347
      4234.84      0.82374424    0.0073594537
      4239.08      0.82900911    0.0073538815
      4243.32      0.83550517    0.0073484062
      4247.56      0.83873359    0.0073430404
      4251.81      0.83997422    0.0073879805
      4256.06      0.84320782    0.0073828055
      4260.32      0.84945161    0.0073777613
      4264.58      0.85770571    0.0074218738
      4268.84      0.85977385    0.0074159379
      4273.11      0.86348697    0.0074101480
      4277.38      0.86533833    0.0074566046
      4281.66      0.86625898    0.0074510728
      4285.94      0.86140567    0.0074457108
      4290.23      0.85749184    0.0074405308
      4294.52      0.86108071    0.0074855485
      4298.81      0.86656819    0.0074793858
      4303.11      0.86724625    0.0074734153
      4307.42      0.87293534    0.0075217376
      4311.72      0.87642596    0.0075161438
      4316.04      0.88030962    0.0075107824
      4320.35      0.88434569    0.0075573409
      4324.67      0.88640483    0.0075508938
      4329.00      0.88846010    0.0075447026
      4333.33      0.89580574    0.0075950418
      4337.66      0.90566438    0.0075893416
      4342.00      0.91401842    0.0075839369
      4346.34      0.92827009    0.0076315735
      4350.69      0.93468806    0.0076249926
      4355.04      0.93897515    0.0076773999
      4359.39      0.94454723    0.0076123236
      4363.75      0.95085131    0.0076048714
      4368.12      0.95554055    0.0076562621
      4372.48      0.96059158    0.0076494253
      4376.86      0.96412517    0.0076429641
      4381.23      0.97044248    0.0076955873
      4385.61      0.97755886    0.0076877799
      4390.00      0.98475758    0.0077414474
      4394.39      0.99015681    0.0077344160
      4398.79      0.99126007    0.0077278244
      4403.18      0.99425332    0.0077822618
      4407.59       1.0009919    0.0077742173
      4412.00       1.0103266    0.0077666749
      4416.41       1.0197024    0.0078234194
      4420.82       1.0309219    0.0078168640
      4425.25       1.0363449    0.0078727560
      4429.67       1.0414792    0.0078646093
      4434.10       1.0512149    0.0079239934
      4438.54       1.0576403    0.0079170428
      4442.97       1.0654501    0.0079107585
      4447.42       1.0708187    0.0079676627
      4451.86       1.0816604    0.0078924714
      4456.32       1.0907534    0.0079540626
      4460.77       1.0936081    0.0079444404
      4465.24       1.0924131    0.0079355762
      4469.70       1.0916947    0.0079973684
      4474.17       1.0992402    0.0079899820
      4478.65       1.1051166    0.0080521046
      4483.12       1.1043395    0.0080428403
      4487.61       1.1057333    0.0081080546
      4492.09       1.1091621    0.0081005527
      4496.59       1.1168959    0.0081655498
      4501.08       1.1223801    0.0081560581
      4505.58       1.1270537    0.0081476141
      4510.09       1.1246461    0.0081407346
      4514.60       1.1260155    0.0081303525
      4519.12       1.1323411    0.0081983265
      4523.63       1.1296547    0.0081900855
      4528.16       1.1320698    0.0082593792
      4532.69       1.1333262    0.0082489544
      4537.22       1.1362186    0.0083214231
      4541.76       1.1346286    0.0083135424
      4546.30       1.1313626    0.0083850958
      4550.85       1.1253731    0.0083749006
      4555.40       1.1252757    0.0084526276
      4559.95       1.1216797    0.0083576940
      4564.51       1.1150010    0.0084329392
      4569.08       1.1135922    0.0084234912
      4573.65       1.1128728    0.0085021006
      4578.22       1.1057673    0.0084900534
      4582.80       1.1078908    0.0085713357
      4587.38       1.1107664    0.0085629337
      4591.97       1.1086600    0.0086430900
      4596.56       1.1073697    0.0086319876
      4601.16       1.1048329    0.0085325373
      4605.76       1.1042196    0.0086129967
      4610.37       1.1075787    0.0085111711
      4614.98       1.1075243    0.0085020398
      4619.59       1.1053210    0.0085824944
      4624.21       1.1101744    0.0084807027
      4628.84       1.1061315    0.0084714071
      4633.47       1.0978757    0.0085515447
      4638.10       1.0935899    0.0084499406
      4642.74       1.0975148    0.0084406364
      4647.38       1.0992112    0.0085201573
      4652.03       1.0758683    0.0084189120
      4656.68       1.0544611    0.0084097381
      4661.34       1.0320656    0.0084029985
      4666.00       1.0193579    0.0083876508
      4670.67       1.0080296    0.0083787657
      4675.33      0.99107347    0.0082779998
      4680.01      0.96736540    0.0083562181
      4684.69      0.95435542    0.0083477953
      4689.38      0.94702821    0.0082463304
      4694.07      0.94713766    0.0083247086
      4698.76      0.94016457    0.0082267639
      4703.46      0.94123701    0.0082145316
      4708.16      0.94737332    0.0082932437
      4712.87      0.95141383    0.0081941908
      4717.58      0.95868535    0.0082708063
      4722.30      0.97002808    0.0081748538
      4727.03      0.99258243    0.0081615742
      4731.75       1.0122805    0.0082387837
      4736.48       1.0160169    0.0081413388
      4741.22       1.0104160    0.0081291102
      4745.96       1.0156190    0.0081218776
      4750.71       1.0255888    0.0081079561
      4755.46       1.0403524    0.0080969799
      4760.22       1.0486714    0.0080875138
      4764.97       1.0533545    0.0080749521
      4769.74       1.0599642    0.0080676641
      4774.51       1.0584978    0.0080535411
      4779.29       1.0622959    0.0079611093
      4784.07       1.0663490    0.0080326476
      4788.85       1.0604129    0.0080202049
      4793.64       1.0654158    0.0080121918
      4798.43       1.0667726    0.0079983596
      4803.23       1.0638191    0.0079069105
      4808.03       1.0620374    0.0079768985
      4812.84       1.0634374    0.0078843988
      4817.66       1.0736522    0.0079557153
      4822.48       1.0750242    0.0078622077
      4827.30       1.0764602    0.0078527206
      4832.12       1.0749098    0.0079205822
      4836.96       1.0845862    0.0078297729
      4841.79       1.0966104    0.0078986774
      4846.63       1.1070359    0.0078070705
      4851.48       1.1168743    0.0077990027
      4856.33       1.1230169    0.0077845525
      4861.19       1.1298105    0.0077756465
      4866.05       1.1263871    0.0077621623
      4870.92       1.1327380    0.0077524947
      4875.79       1.1331224    0.0077398544
      4880.66       1.1321712    0.0077294853
      4885.55       1.1345554    0.0076390419
      4890.43       1.1378818    0.0077065893
      4895.32       1.1357466    0.0076169938
      4900.22       1.1319251    0.0076837583
      4905.12       1.1298583    0.0075949051
      4910.02       1.1323049    0.0076609670
      4914.94       1.1308829    0.0075727598
      4919.85       1.1303716    0.0076381920
      4924.77       1.1344002    0.0075505387
      4929.70       1.1399725    0.0075379860
      4934.62       1.1488372    0.0075282399
      4939.56       1.1558205    0.0075154255
      4944.50       1.1628810    0.0075058053
      4949.44       1.1658893    0.0074928208
      4954.39       1.1691672    0.0074832664
      4959.35       1.1657734    0.0074701942
      4964.31       1.1637394    0.0074606178
      4969.27       1.1639832    0.0074475391
      4974.24       1.1688701    0.0074378685
      4979.22       1.1761480    0.0074248588
      4984.20       1.1944123    0.0074149970
      4989.18       1.2048180    0.0074021473
      4994.17       1.2156035    0.0073920558
      4999.16       1.2251223    0.0073073130
      5004.16       1.2318781    0.0073690172
      5009.17       1.2364049    0.0072848279
      5014.18       1.2436827    0.0073459322
      5019.19       1.2467185    0.0072623808
      5024.21       1.2521452    0.0073228210
      5029.23       1.2565332    0.0072400131
      5034.26       1.2601573    0.0072997355
      5039.30       1.2552381    0.0072177377
      5044.34       1.2503089    0.0072054842
      5049.39       1.2491463    0.0071955970
      5054.43       1.2459912    0.0071827770
      5059.49       1.2455704    0.0071736451
      5064.55       1.2508518    0.0071601823
      5069.61       1.2588409    0.0071518944
      5074.68       1.2729681    0.0071377696
      5079.76       1.2880487    0.0070570540
      5084.84       1.3008362    0.0071155580
      5089.92       1.3110820    0.0070343240
      5095.01       1.3258344    0.0070936427
      5100.11       1.3352067    0.0070807592
      5105.21       1.3502344    0.0070016148
      5110.31       1.3613814    0.0070583076
      5115.42       1.3716954    0.0069785222
      5120.54       1.3862852    0.0070362278
      5125.66       1.4003783    0.0069557431
      5130.79       1.4178094    0.0069461426
      5135.92       1.4307950    0.0069333426
      5141.05       1.4489617    0.0069227373
      5146.20       1.4601959    0.0069793515
      5151.34       1.4689921    0.0068997903
      5156.49       1.4771160    0.0068903958
      5161.65       1.4889189    0.0068773500
      5166.81       1.4982314    0.0068668510
      5171.98       1.5121526    0.0067908299
      5177.15       1.5204593    0.0068438777
      5182.33       1.5313030    0.0068343442
      5187.51       1.5395976    0.0068215851
      5192.70       1.5436169    0.0068108416
      5197.89       1.5512708    0.0067359312
      5203.09       1.5604981    0.0067880968
      5208.29       1.5650935    0.0067781032
      5213.50       1.5768537    0.0067023799
      5218.72       1.5864753    0.0067549529
      5223.93       1.5914577    0.0066816278
      5229.16       1.6031306    0.0066692236
      5234.39       1.6082395    0.0067219905
      5239.62       1.6154351    0.0066482681
      5244.86       1.6188618    0.0066363170
      5250.11       1.6259809    0.0066284002
      5255.36       1.6380305    0.0066152127
      5260.61       1.6461587    0.0066036083
      5265.87       1.6539925    0.0065953143
      5271.14       1.6683244    0.0065824400
      5276.41       1.6795995    0.0065711444
      5281.69       1.6893434    0.0065625748
      5286.97       1.6970875    0.0065499267
      5292.26       1.7088348    0.0064775437
      5297.55       1.7247546    0.0064676958
      5302.85       1.7304871    0.0065176496
      5308.15       1.7402602    0.0064455797
      5313.46       1.7457905    0.0064357037
      5318.77       1.7516407    0.0064856209
      5324.09       1.7624737    0.0064137965
      5329.42       1.7773517    0.0064038171
      5334.75       1.7831549    0.0064538966
      5340.08       1.7919158    0.0063822306
      5345.42       1.8011935    0.0063720623
      5350.77       1.8034746    0.0063630276
      5356.12       1.8126598    0.0063509460
      5361.48       1.8207503    0.0063405306
      5366.83       1.8267425    0.0063311800
      5372.20       1.8365045    0.0062625067
      5377.58       1.8437039    0.0063093116
      5382.95       1.8501986    0.0062996029
      5388.34       1.8530145    0.0062323667
      5393.72       1.8575109    0.0062785280
      5399.12       1.8610792    0.0062683955
      5404.52       1.8527255    0.0062028059
      5409.92       1.8526777    0.0061914362
      5415.33       1.8471517    0.0062376982
      5420.75       1.8437550    0.0062279892
      5426.17       1.8380540    0.0061621661
      5431.60       1.8316743    0.0061512130
      5437.03       1.8183160    0.0061410474
      5442.47       1.8078918    0.0061337462
      5447.91       1.8043510    0.0061223118
      5453.36       1.7857102    0.0061116313
      5458.81       1.7680849    0.0061016803
      5464.27       1.7508048    0.0060944154
      5469.73       1.7339663    0.0060831377
      5475.20       1.7179600    0.0060726822
      5480.68       1.7072305    0.0060081842
      5486.16       1.6952778    0.0059990168
      5491.65       1.6789162    0.0060448773
      5497.14       1.6639179    0.0060344294
      5502.64       1.6466558    0.0059702790
      5508.14       1.6256647    0.0059610751
      5513.65       1.6078155    0.0059524298
      5519.16       1.5897117    0.0059969764
      5524.68       1.5763741    0.0059330807
      5530.20       1.5618362    0.0059237797
      5535.73       1.5508536    0.0059149796
      5541.27       1.5401109    0.0059066671
      5546.81       1.5283785    0.0059504775
      5552.36       1.5192371    0.0058873293
      5557.91       1.4994770    0.0058783310
      5563.47       1.4823717    0.0058697754
      5569.04       1.4716989    0.0058616470
      5574.60       1.4672949    0.0058006716
      5580.18       1.4625682    0.0058427647
      5585.76       1.4594877    0.0058339416
      5591.35       1.4544719    0.0058255119
      5596.94       1.4487914    0.0058174574
      5602.53       1.4428044    0.0057576965
      5608.14       1.4394958    0.0057486855
      5613.75       1.4329555    0.0057400214
      5619.36       1.4287270    0.0057823719
      5624.98       1.4305040    0.0057743119
      5630.60       1.4280727    0.0057163399
      5636.23       1.4276786    0.0057074020
      5641.87       1.4271048    0.0056987723
      5647.51       1.4266015    0.0056904390
      5653.16       1.4291902    0.0056823923
      5658.82       1.4337327    0.0056769988
      5664.47       1.4363366    0.0056680819
      5670.14       1.4356610    0.0056594484
      5675.81       1.4387674    0.0056510783
      5681.48       1.4471997    0.0056429631
      5687.17       1.4487725    0.0056350849
      5692.85       1.4548544    0.0055783081
      5698.55       1.4613000    0.0055709316
      5704.25       1.4651906    0.0055637259
      5709.95       1.4691952    0.0055567772
      5715.66       1.4752302    0.0055980142
      5721.38       1.4764651    0.0055903178
      5727.10       1.4812409    0.0055827864
      5732.83       1.4902494    0.0055266982
      5738.56       1.4923257    0.0055195968
      5744.30       1.5009376    0.0055126530
      5750.04       1.5067780    0.0055058713
      5755.79       1.5106790    0.0054992397
      5761.55       1.5207144    0.0054927875
      5767.31       1.5274702    0.0054866206
      5773.08       1.5268376    0.0054333448
      5778.85       1.5318001    0.0054273744
      5784.63       1.5414645    0.0054213192
      5790.41       1.5474056    0.0054152217
      5796.21       1.5466789    0.0054551908
      5802.00       1.5498141    0.0054503995
      5807.81       1.5507688    0.0054474057
      5813.61       1.5435369    0.0054461153
      5819.43       1.5436423    0.0054452955
      5825.25       1.5398430    0.0054446281
      5831.07       1.5374219    0.0053981365
      5836.90       1.5344597    0.0053980879
      5842.74       1.5341891    0.0053964825
      5848.58       1.5249188    0.0053930709
      5854.43       1.5235127    0.0053888332
      5860.29       1.5185424    0.0053839614
      5866.15       1.5137385    0.0053782413
      5872.01       1.5086130    0.0053717413
      5877.89       1.5026322    0.0053650754
      5883.76       1.4945900    0.0053588862
      5889.65       1.4924412    0.0053529807
      5895.54       1.4821286    0.0053466873
      5901.43       1.4723973    0.0053397361
      5907.34       1.4602713    0.0052874187
      5913.24       1.4489486    0.0052797038
      5919.16       1.4383624    0.0052721730
      5925.08       1.4224968    0.0052646965
      5931.00       1.4089482    0.0052565126
      5936.93       1.3927693    0.0052482011
      5942.87       1.3840317    0.0052411470
      5948.81       1.3708582    0.0052350694
      5954.76       1.3613186    0.0052285083
      5960.72       1.3536923    0.0052217387
      5966.68       1.3501460    0.0052158612
      5972.64       1.3370526    0.0052108240
      5978.62       1.3286675    0.0052062283
      5984.60       1.3196521    0.0052018896
      5990.58       1.3158234    0.0051978950
      5996.57       1.3120313    0.0051523241
      6002.57       1.3085321    0.0051488677
      6008.57       1.2989579    0.0051455022
      6014.58       1.2961465    0.0051422818
      6020.60       1.2872929    0.0051392500
      6026.62       1.2814075    0.0051363284
      6032.65       1.2789614    0.0051335831
      6038.68       1.2691878    0.0051309424
      6044.72       1.2584183    0.0051284148
      6050.76       1.2524489    0.0051260094
      6056.81       1.2471949    0.0051237320
      6062.87       1.2423084    0.0051215838
      6068.93       1.2384319    0.0051195715
      6075.00       1.2329333    0.0051177014
      6081.08       1.2224121    0.0050737378
      6087.16       1.2118206    0.0050717101
      6093.25       1.2135932    0.0050698183
      6099.34       1.2143858    0.0050680557
      6105.44       1.2144075    0.0050664337
      6111.54       1.2137350    0.0050649572
      6117.66       1.2092945    0.0050636284
      6123.78       1.2004607    0.0051049548
      6129.90       1.1957143    0.0051039590
      6136.03       1.1954115    0.0050632660
      6142.17       1.1993246    0.0050620196
      6148.31       1.2002351    0.0050609586
      6154.46       1.1958872    0.0050605199
      6160.61       1.1924088    0.0050617347
      6166.77       1.1929891    0.0050635830
      6172.94       1.1912830    0.0050631299
      6179.11       1.1885259    0.0050629222
      6185.29       1.1846640    0.0050278416
      6191.48       1.1825002    0.0050339611
      6197.67       1.1787259    0.0050427930
      6203.87       1.1803026    0.0050969738
      6210.07       1.1859997    0.0051090086
      6216.28       1.1841832    0.0051210428
      6222.50       1.1829972    0.0050929530
      6228.72       1.1845060    0.0051011583
      6234.95       1.1839307    0.0051063415
      6241.19       1.1905571    0.0051080676
      6247.42       1.1999528    0.0051063747
      6253.67       1.2135820    0.0051017225
      6259.93       1.2312564    0.0050918841
      6266.19       1.2400725    0.0050835268
      6272.46       1.2493543    0.0050769497
      6278.73       1.2601067    0.0050736389
      6285.01       1.2748577    0.0050721040
      6291.29       1.2840107    0.0050287878
      6297.58       1.2907508    0.0050253534
      6303.88       1.2991148    0.0050239524
      6310.19       1.3090650    0.0050638774
      6316.50       1.3212760    0.0050638905
      6322.81       1.3362876    0.0050255060
