# starting wavelength =        3430.2788
# ending wavelength =        10121.753
# O2 telluric scale =        0
# O2 telluric shift =        0
# H2O telluric scale =        0
# H2O telluric shift =        0
      3433.02       1.0521477     0.028362003
      3436.45       1.0569686     0.025784831
      3439.89       1.0650457     0.020955724
      3443.33       1.0718636     0.019395486
      3446.78       1.0771036     0.016363071
      3450.22       1.0782931     0.014821836
      3453.67       1.0770849     0.014091396
      3457.13       1.0750612     0.012657577
      3460.58       1.0731089     0.012201133
      3464.04       1.0743109     0.011342860
      3467.51       1.0824212     0.011040735
      3470.98       1.0881061     0.010523774
      3474.45       1.0826531     0.010149542
      3477.92       1.0843607    0.0099583612
      3481.40       1.0883649    0.0096843355
      3484.88       1.0951866    0.0095313589
      3488.37       1.1022564    0.0093498489
      3491.86       1.1113050    0.0092204426
      3495.35       1.1174812    0.0090990319
      3498.84       1.1237215    0.0089657546
      3502.34       1.1309630    0.0089417663
      3505.84       1.1369375    0.0090109053
      3509.35       1.1458897    0.0089884555
      3512.86       1.1544110    0.0089669693
      3516.37       1.1656063    0.0089464454
      3519.89       1.1726795    0.0089030688
      3523.41       1.1790124    0.0088798133
      3526.93       1.1850131    0.0088575711
      3530.46       1.1905621    0.0088363094
      3533.99       1.1958636    0.0089030597
      3537.53       1.2022352    0.0088786852
      3541.06       1.2106890    0.0088554005
      3544.60       1.2204612    0.0087279358
      3548.15       1.2323672    0.0087969657
      3551.70       1.2434872    0.0087718805
      3555.25       1.2510193    0.0087479350
      3558.80       1.2546022    0.0087251177
      3562.36       1.2573920    0.0086919445
      3565.92       1.2641499    0.0086662169
      3569.49       1.2713031    0.0086416863
      3573.06       1.2795503    0.0086189507
      3576.64       1.2827601    0.0086895890
      3580.21       1.2868134    0.0086683705
      3583.79       1.2913824    0.0085364596
      3587.38       1.3011476    0.0086052200
      3590.96       1.3106639    0.0085822874
      3594.55       1.3194149    0.0085606589
      3598.15       1.3235002    0.0085403251
      3601.75       1.3286157    0.0086063103
      3605.35       1.3378373    0.0084760378
      3608.96       1.3472650    0.0084540836
      3612.56       1.3546453    0.0084334883
      3616.18       1.3621949    0.0085000042
      3619.79       1.3702150    0.0084760470
      3623.41       1.3855782    0.0083485435
      3627.04       1.3971163    0.0084200357
      3630.66       1.4042048    0.0083944021
      3634.29       1.4110094    0.0083702865
      3637.93       1.4167020    0.0083476680
      3641.57       1.4228906    0.0083151541
      3645.21       1.4267669    0.0082894245
      3648.86       1.4291008    0.0082652533
      3652.50       1.4334773    0.0083370913
      3656.16       1.4391916    0.0083157656
      3659.81       1.4450313    0.0081850226
      3663.47       1.4522081    0.0081609323
      3667.14       1.4577590    0.0082316443
      3670.80       1.4642281    0.0082104747
      3674.48       1.4722179    0.0081910098
      3678.15       1.4838351    0.0081496237
      3681.83       1.4952080    0.0081270151
      3685.51       1.5077453    0.0081061443
      3689.20       1.5240095    0.0081757229
      3692.88       1.5342647    0.0081512422
      3696.58       1.5448580    0.0080232246
      3700.27       1.5513438    0.0080027746
      3703.98       1.5577724    0.0080704702
      3707.68       1.5631233    0.0080464823
      3711.39       1.5676875    0.0080244350
      3715.10       1.5702974    0.0079912342
      3718.81       1.5729198    0.0079659065
      3722.53       1.5758798    0.0079425734
      3726.26       1.5792594    0.0080171469
      3729.98       1.5786487    0.0078867043
      3733.71       1.5831958    0.0078621487
      3737.45       1.5881705    0.0079345348
      3741.18       1.5857791    0.0079137585
      3744.93       1.5842658    0.0078951518
      3748.67       1.5810209    0.0078532842
      3752.42       1.5771937    0.0078313737
      3756.17       1.5726520    0.0078116503
      3759.93       1.5624013    0.0078802690
      3763.69       1.5612541    0.0077502387
      3767.45       1.5595036    0.0077294894
      3771.22       1.5561454    0.0078003005
      3774.99       1.5570657    0.0077757833
      3778.77       1.5604792    0.0076485030
      3782.54       1.5635437    0.0077212302
      3786.33       1.5671847    0.0076957189
      3790.11       1.5722368    0.0076727122
      3793.90       1.5789372    0.0077504695
      3797.70       1.5869832    0.0076164939
      3801.50       1.5933420    0.0075926385
      3805.30       1.5967155    0.0076685065
      3809.10       1.6004119    0.0076495453
      3812.91       1.6024235    0.0076099063
      3816.73       1.6080159    0.0075874693
      3820.54       1.6147386    0.0075677846
      3824.36       1.6211331    0.0076391395
      3828.19       1.6302854    0.0075072390
      3832.02       1.6383314    0.0074869305
      3835.85       1.6465741    0.0075591568
      3839.68       1.6564815    0.0075349329
      3843.52       1.6682509    0.0074068863
      3847.37       1.6784693    0.0074796890
      3851.22       1.6867450    0.0074549496
      3855.07       1.6919599    0.0075348896
      3858.92       1.6964055    0.0074006857
      3862.78       1.7006743    0.0073755504
      3866.64       1.7062387    0.0074540185
      3870.51       1.7104291    0.0074349753
      3874.38       1.7167800    0.0072966575
      3878.26       1.7250215    0.0073737876
      3882.13       1.7298046    0.0073545255
      3886.02       1.7324262    0.0073169334
      3889.90       1.7388494    0.0072941351
      3893.79       1.7450885    0.0072747932
      3897.69       1.7504180    0.0073478368
      3901.59       1.7560312    0.0072150481
      3905.49       1.7596602    0.0072951071
      3909.39       1.7648992    0.0072680243
      3913.30       1.7699149    0.0072447926
      3917.22       1.7752255    0.0072154957
      3921.13       1.7795023    0.0071886059
      3925.06       1.7842356    0.0071656348
      3928.98       1.7875417    0.0071361754
      3932.91       1.7892754    0.0071096314
      3936.84       1.7923399    0.0071904285
      3940.78       1.7931092    0.0071715337
      3944.72       1.7862147    0.0071337946
      3948.67       1.7826843    0.0071112513
      3952.61       1.7810059    0.0070929660
      3956.57       1.7765607    0.0070545547
      3960.52       1.7752326    0.0070327171
      3964.48       1.7732386    0.0071137032
      3968.45       1.7730960    0.0070875375
      3972.42       1.7724390    0.0069548743
      3976.39       1.7687884    0.0070333406
      3980.37       1.7685769    0.0070082075
      3984.35       1.7727814    0.0069823835
      3988.33       1.7729250    0.0069535335
      3992.32       1.7738857    0.0070381171
      3996.31       1.7741456    0.0070186380
      4000.31       1.7760882    0.0068743735
      4004.31       1.7792228    0.0069589897
      4008.31       1.7776344    0.0069410840
      4012.32       1.7757872    0.0069024107
      4016.33       1.7768997    0.0068808879
      4020.35       1.7766508    0.0069650797
      4024.37       1.7822501    0.0068236269
      4028.40       1.7839312    0.0068038772
      4032.42       1.7824791    0.0068839370
      4036.46       1.7814585    0.0068600590
      4040.50       1.7828238    0.0068315000
      4044.54       1.7801510    0.0068039025
      4048.58       1.7765240    0.0068967066
      4052.63       1.7771034    0.0067503364
      4056.68       1.7776918    0.0068386331
      4060.74       1.7758203    0.0068191453
      4064.80       1.7711590    0.0066704948
      4068.86       1.7665784    0.0067600034
      4072.93       1.7597670    0.0067433550
      4077.01       1.7492130    0.0067033536
      4081.08       1.7415980    0.0066831584
      4085.17       1.7316294    0.0067687685
      4089.25       1.7214723    0.0066253379
      4093.34       1.7136978    0.0067160532
      4097.43       1.7093496    0.0066878313
      4101.53       1.7065441    0.0066654470
      4105.63       1.7044622    0.0066335036
      4109.74       1.7043515    0.0066091556
      4113.85       1.7030555    0.0065812025
      4117.96       1.7018279    0.0065533514
      4122.08       1.7017482    0.0065307074
      4126.20       1.7022288    0.0064994418
      4130.33       1.7068546    0.0063614854
      4134.46       1.7147328    0.0064472396
      4138.59       1.7180092    0.0064204326
      4142.73       1.7194638    0.0063966402
      4146.88       1.7186717    0.0063666730
      4151.02       1.7150990    0.0062323583
      4155.18       1.7157454    0.0063144043
      4159.33       1.7170676    0.0061781002
      4163.49       1.7146857    0.0062634954
      4167.65       1.7160569    0.0062355075
      4171.82       1.7188846    0.0061054361
      4175.99       1.7245563    0.0061830503
      4180.17       1.7284236    0.0060513122
      4184.35       1.7291118    0.0061317485
      4188.54       1.7313709    0.0059983351
      4192.72       1.7319902    0.0059810464
      4196.92       1.7295193    0.0059464385
      4201.11       1.7301432    0.0059270083
      4205.31       1.7330609    0.0060019756
      4209.52       1.7337598    0.0058740042
      4213.73       1.7351290    0.0059511989
      4217.94       1.7363277    0.0058219534
      4222.16       1.7355877    0.0058057384
      4226.38       1.7320479    0.0057707473
      4230.61       1.7313184    0.0057527375
      4234.84       1.7354038    0.0057203002
      4239.08       1.7373279    0.0057005924
      4243.32       1.7374244    0.0057731089
      4247.56       1.7407180    0.0056492287
      4251.81       1.7461007    0.0056352185
      4256.06       1.7557849    0.0055985664
      4260.32       1.7545820    0.0055830960
      4264.58       1.7518427    0.0055485305
      4268.84       1.7532977    0.0055317064
      4273.11       1.7524387    0.0054990629
      4277.38       1.7513494    0.0054809704
      4281.66       1.7502214    0.0053600412
      4285.94       1.7504165    0.0054308413
      4290.23       1.7486843    0.0053122863
      4294.52       1.7461012    0.0053812622
      4298.81       1.7418684    0.0052649247
      4303.11       1.7371843    0.0053321904
      4307.42       1.7334499    0.0052179028
      4311.72       1.7312403    0.0052835567
      4316.04       1.7307591    0.0051711715
      4320.35       1.7279830    0.0052353485
      4324.67       1.7277844    0.0051247756
      4329.00       1.7248348    0.0051019890
      4333.33       1.7211113    0.0050786224
      4337.66       1.7160190    0.0050552936
      4342.00       1.7075229    0.0050326755
      4346.34       1.7051333    0.0050089049
      4350.69       1.7033558    0.0049869333
      4355.04       1.6991101    0.0049628229
      4359.39       1.6930592    0.0049414008
      4363.75       1.6904401    0.0049170111
      4368.12       1.6888126    0.0048960467
      4372.48       1.6894093    0.0048714800
      4376.86       1.6893036    0.0048508408
      4381.23       1.6917235    0.0048262028
      4385.61       1.6978791    0.0048058211
      4390.00       1.7015436    0.0047811750
      4394.39       1.7072581    0.0047609344
      4398.79       1.7146798    0.0047363944
      4403.18       1.7234613    0.0047162376
      4407.59       1.7287473    0.0046918729
      4412.00       1.7316913    0.0046716792
      4416.41       1.7371093    0.0046476027
      4420.82       1.7433069    0.0046273219
      4425.25       1.7505058    0.0046035663
      4429.67       1.7580307    0.0045831206
      4434.10       1.7641013    0.0045598392
      4438.54       1.7681309    0.0044675190
      4442.97       1.7713799    0.0045163828
      4447.42       1.7763426    0.0044252871
      4451.86       1.7833763    0.0044732147
      4456.32       1.7913373    0.0044518174
      4460.77       1.7984446    0.0044303628
      4465.24       1.8050358    0.0044085081
      4469.70       1.8099156    0.0043140143
      4474.17       1.8132312    0.0043654966
      4478.65       1.8177482    0.0042725583
      4483.12       1.8246980    0.0043227653
      4487.61       1.8297062    0.0042314691
      4492.09       1.8317639    0.0042803775
      4496.59       1.8353631    0.0041907671
      4501.08       1.8392925    0.0042383413
      4505.58       1.8410525    0.0041504794
      4510.09       1.8431054    0.0041966808
      4514.60       1.8438400    0.0041106307
      4519.12       1.8463143    0.0040853779
      4523.63       1.8478250    0.0040712500
      4528.16       1.8478007    0.0040453053
      4532.69       1.8478050    0.0040323684
      4537.22       1.8481841    0.0040056974
      4541.76       1.8457683    0.0039940120
      4546.30       1.8433031    0.0039665818
      4550.85       1.8384683    0.0038836575
      4555.40       1.8354386    0.0039279976
      4559.95       1.8293569    0.0039042702
      4564.51       1.8221531    0.0038899776
      4569.08       1.8149340    0.0038653464
      4573.65       1.8101035    0.0038525602
      4578.22       1.8019790    0.0038269950
      4582.80       1.7967057    0.0037476461
      4587.38       1.7909621    0.0037892637
      4591.97       1.7870156    0.0037095661
      4596.56       1.7820992    0.0037521920
      4601.16       1.7786006    0.0036720879
      4605.76       1.7754154    0.0037158143
      4610.37       1.7727452    0.0036913063
      4614.98       1.7666785    0.0036147542
      4619.59       1.7610113    0.0036545876
      4624.21       1.7531113    0.0035775631
      4628.84       1.7443275    0.0036186384
      4633.47       1.7354338    0.0035410914
      4638.10       1.7255168    0.0035218142
      4642.74       1.7182898    0.0035593689
      4647.38       1.7086100    0.0034849629
      4652.03       1.6989125    0.0035239129
      4656.68       1.6925946    0.0034489124
      4661.34       1.6879171    0.0034305263
      4666.00       1.6835022    0.0034137168
      4670.67       1.6817972    0.0033940958
      4675.33       1.6812961    0.0034314079
      4680.01       1.6808770    0.0033585786
      4684.69       1.6799444    0.0033407347
      4689.38       1.6801415    0.0033239949
      4694.07       1.6827642    0.0033048665
      4698.76       1.6862084    0.0032376721
      4703.46       1.6888818    0.0032700066
      4708.16       1.6915953    0.0032524173
      4712.87       1.6942363    0.0032361792
      4717.58       1.6945227    0.0032172712
      4722.30       1.6963379    0.0031520706
      4727.03       1.6989298    0.0031832201
      4731.75       1.7015167    0.0031656345
      4736.48       1.7028579    0.0030997873
      4741.22       1.7046323    0.0031313699
      4745.96       1.7061455    0.0030685617
      4750.71       1.7081237    0.0030983149
      4755.46       1.7112560    0.0030805196
      4760.22       1.7108866    0.0030173132
      4764.97       1.7105931    0.0030473381
      4769.74       1.7111633    0.0029872213
      4774.51       1.7104223    0.0029670740
      4779.29       1.7118941    0.0029972589
      4784.07       1.7153263    0.0029370198
      4788.85       1.7175474    0.0029177530
      4793.64       1.7192557    0.0029082574
      4798.43       1.7195731    0.0028877645
      4803.23       1.7207430    0.0028692734
      4808.03       1.7217008    0.0028591248
      4812.84       1.7257218    0.0028393943
      4817.66       1.7307762    0.0028676668
      4822.48       1.7369485    0.0028109216
      4827.30       1.7435513    0.0027918459
      4832.12       1.7510037    0.0027838952
      4836.96       1.7608206    0.0027635854
      4841.79       1.7678070    0.0027450768
      4846.63       1.7742597    0.0027368290
      4851.48       1.7775251    0.0027170786
      4856.33       1.7815839    0.0026990515
      4861.19       1.7842037    0.0026448166
      4866.05       1.7887834    0.0026713705
      4870.92       1.7931101    0.0026537410
      4875.79       1.7980564    0.0026004610
      4880.66       1.7991919    0.0026264424
      4885.55       1.8005238    0.0026091418
      4890.43       1.8030865    0.0025567484
      4895.32       1.8068029    0.0025822777
      4900.22       1.8099434    0.0025652420
      4905.12       1.8142294    0.0025136694
      4910.02       1.8191185    0.0025388795
      4914.94       1.8246554    0.0024865355
      4919.85       1.8310973    0.0024712381
      4924.77       1.8377346    0.0024962490
      4929.70       1.8427769    0.0024445877
      4934.62       1.8477635    0.0024294641
      4939.56       1.8542334    0.0024155017
      4944.50       1.8590252    0.0024035103
      4949.44       1.8633230    0.0023883619
      4954.39       1.8686384    0.0023743969
      4959.35       1.8747731    0.0023631090
      4964.31       1.8810435    0.0023479839
      4969.27       1.8877871    0.0023339783
      4974.24       1.8937386    0.0023566696
      4979.22       1.9015063    0.0023083517
      4984.20       1.9105586    0.0022942804
      4989.18       1.9196440    0.0022812774
      4994.17       1.9270175    0.0022695008
      4999.16       1.9364996    0.0022553444
      5004.16       1.9448015    0.0022421906
      5009.17       1.9554230    0.0021974356
      5014.18       1.9649165    0.0022172026
      5019.19       1.9730841    0.0022038901
      5024.21       1.9845649    0.0021608614
      5029.23       1.9986954    0.0021799198
      5034.26       2.0134593    0.0021664358
      5039.30       2.0281628    0.0021538523
      5044.34       2.0386702    0.0021108721
      5049.39       2.0505901    0.0021298737
      5054.43       2.0625494    0.0021170714
      5059.49       2.0746579    0.0020760249
      5064.55       2.0860587    0.0020623673
      5069.61       2.0974443    0.0020812380
      5074.68       2.1076322    0.0020421697
      5079.76       2.1193779    0.0020283350
      5084.84       2.1287983    0.0020152449
      5089.92       2.1372141    0.0020339074
      5095.01       2.1455488    0.0019953498
      5100.11       2.1526306    0.0019820501
      5105.21       2.1605208    0.0019694431
      5110.31       2.1663622    0.0019878295
      5115.42       2.1727717    0.0019499632
      5120.54       2.1792190    0.0019371192
      5125.66       2.1894425    0.0019249342
      5130.79       2.1969355    0.0019190501
      5135.92       2.2046674    0.0019059738
      5141.05       2.2081204    0.0018935235
      5146.20       2.2143018    0.0018816882
      5151.34       2.2224364    0.0018456520
      5156.49       2.2291584    0.0018633682
      5161.65       2.2341473    0.0018512564
      5166.81       2.2406854    0.0018397154
      5171.98       2.2456049    0.0018044727
      5177.15       2.2508063    0.0018221482
      5182.33       2.2535409    0.0018103229
      5187.51       2.2552474    0.0017990339
      5192.70       2.2580369    0.0017645288
      5197.89       2.2612063    0.0017543341
      5203.09       2.2635225    0.0017707557
      5208.29       2.2638375    0.0017596770
      5213.50       2.2619532    0.0017258609
      5218.72       2.2605175    0.0017158258
      5223.93       2.2607023    0.0017062316
      5229.16       2.2576358    0.0017217049
      5234.39       2.2549570    0.0016885229
      5239.62       2.2497626    0.0016786204
      5244.86       2.2446508    0.0016691257
      5250.11       2.2407850    0.0016600344
      5255.36       2.2349477    0.0016748579
      5260.61       2.2280576    0.0016427863
      5265.87       2.2207953    0.0016333846
      5271.14       2.2119310    0.0016243558
