# starting wavelength =        3325.6352
# ending wavelength =        10261.441
# O2 telluric scale =        0
# O2 telluric shift =        0
# H2O telluric scale =        0
# H2O telluric shift =        0
      3328.28      0.67000488      0.29921986
      3331.61      0.65756463      0.25894761
      3334.94      0.64664421      0.20424370
      3338.27      0.70721951      0.19482433
      3341.61      0.75209728      0.16131209
      3344.95      0.78792382      0.15612761
      3348.30      0.82281230      0.14216975
      3351.65      0.81171170      0.12629247
      3355.00      0.79464667      0.12370911
      3358.35      0.78773240      0.11399117
      3361.71      0.76068585      0.11202917
      3365.07      0.76906003      0.10820128
      3368.44      0.81131607      0.10358166
      3371.81      0.85543216      0.10192979
      3375.18      0.88710111     0.098810749
      3378.56      0.87018214     0.097301273
      3381.94      0.86823146     0.096493197
      3385.32      0.88205675     0.094777499
      3388.70      0.85946671     0.093321028
      3392.09      0.74662090     0.093574357
      3395.48      0.78601119     0.093840942
      3398.88      0.73919941     0.095389377
      3402.28      0.80700137     0.095601085
      3405.68      0.75706871     0.094113683
      3409.09      0.69149502     0.094346073
      3412.49      0.60461174     0.094590424
      3415.91      0.59967343     0.096232029
      3419.32      0.62588452     0.096421799
      3422.74      0.69179490     0.096623635
      3426.17      0.69639099     0.096837403
      3429.59      0.73300367     0.095333663
      3433.02      0.67990380     0.095566334
      3436.45      0.71935058     0.097247004
      3439.89      0.81687937     0.097425310
      3443.33      0.94310856     0.097614996
      3446.78       1.0290425     0.097815891
      3450.22       1.0635561     0.098027943
      3453.67       1.1469568     0.099680688
      3457.13       1.1482860     0.098239064
      3460.58       1.1887070     0.098403654
      3464.04       1.1445903     0.098579083
      3467.51       1.1086018     0.098765046
      3470.98       1.0982288     0.098961413
      3474.45       1.0880159      0.10061251
      3477.92       1.0877365      0.10083661
      3481.40       1.1028168      0.10107206
      3484.88       1.0848112      0.10131897
      3488.37      0.98844034     0.099690796
      3491.86      0.96919466     0.099869672
      3495.35      0.95031324      0.10151735
      3498.84      0.87441132      0.10172092
      3502.34      0.76386221      0.10193500
      3505.84      0.69884924      0.10215959
      3509.35      0.56685141      0.10239467
      3512.86      0.49547082      0.10264026
      3516.37      0.45947051      0.10436912
      3519.89      0.50595675      0.10258525
      3523.41      0.54557900      0.10277632
      3526.93      0.56203078      0.10297713
      3530.46      0.67227182      0.10318743
      3533.99      0.73227767      0.10340723
      3537.53      0.78130905      0.10526215
      3541.06      0.82701596      0.10542151
      3544.60      0.84645573      0.10559058
      3548.15      0.84759457      0.10576917
      3551.70      0.86617215      0.10595713
      3555.25      0.86190388      0.10416102
      3558.80      0.96433739      0.10436260
      3562.36       1.0221728      0.10629673
      3565.92       1.0928695      0.10643892
      3569.49       1.1666410      0.10659006
      3573.06       1.1566965      0.10674983
      3576.64       1.1249273      0.10691806
      3580.21       1.0907705      0.10709461
      3583.79       1.0945498      0.10897401
      3587.38       1.0455941      0.10917440
      3590.96       1.0161367      0.10938390
      3594.55      0.98947518      0.10756401
      3598.15      0.89950275      0.10770260
      3601.75      0.76925193      0.10784887
      3605.35      0.71592616      0.10800262
      3608.96      0.70712322      0.10987231
      3612.56      0.68581855      0.11004596
      3616.18      0.67100286      0.11022756
      3619.79      0.69894273      0.11041708
      3623.41      0.73231622      0.11061465
      3627.04      0.81774503      0.11081975
      3630.66      0.86219215      0.11103248
      3634.29      0.89869267      0.11301963
      3637.93      0.91899356      0.11316706
      3641.57      0.96571448      0.11105523
      3645.21       1.0050045      0.11121450
      3648.86      0.99114729      0.11138054
      3652.50      0.98790432      0.11155344
      3656.16      0.98734073      0.11173274
      3659.81      0.96420895      0.11191845
      3663.47       1.0217401      0.11405042
      3667.14       1.1083856      0.11417358
      3670.80       1.2173988      0.11430340
      3674.48       1.2730653      0.11443970
      3678.15       1.2470620      0.11458227
      3681.83       1.1990239      0.11473105
      3685.51       1.1510720      0.11488572
      3689.20       1.1251791      0.11701759
      3692.88       1.1192312      0.11719153
      3696.58       1.1321346      0.11737168
      3700.27       1.0885094      0.11755809
      3703.98       1.0513065      0.11538148
      3707.68      0.97012978      0.11549502
      3711.39      0.99147429      0.11561376
      3715.10       1.0355337      0.11573764
      3718.81      0.99981715      0.11586634
      3722.53       1.0067142      0.11798659
      3726.26      0.98371259      0.11812955
      3729.98      0.94065633      0.11827760
      3733.71      0.93814544      0.11843084
      3737.45      0.96272385      0.11858869
      3741.18       1.0304432      0.11875117
      3744.93       1.0678032      0.11891816
      3748.67       1.0757012      0.11908953
      3752.42       1.0673222      0.12142475
      3756.17       1.0760989      0.12153211
      3759.93       1.0635540      0.12164413
      3763.69       1.0452658      0.12176060
      3767.45       1.0308125      0.12188134
      3771.22      0.97248835      0.12200614
      3774.99      0.90927911      0.12213483
      3778.77      0.88101985      0.12226724
      3782.54      0.89056745      0.12240345
      3786.33      0.89166836      0.12482833
      3790.11      0.88744302      0.12497880
      3793.90      0.87537657      0.12260264
      3797.70      0.90771089      0.12268363
      3801.50      0.87560251      0.12276810
      3805.30      0.83727090      0.12285576
      3809.10      0.84035078      0.12294668
      3812.91      0.89478771      0.12304050
      3816.73      0.88955620      0.12313705
      3820.54      0.89056882      0.12323619
      3824.36      0.88079499      0.12562936
      3828.19      0.93433911      0.12573681
      3832.02       1.0450233      0.12584680
      3835.85       1.1828608      0.12595934
      3839.68       1.2437205      0.12607392
      3843.52       1.2715566      0.12619056
      3847.37       1.3240163      0.12630907
      3851.22       1.3704494      0.12642930
      3855.07       1.3703684      0.12655144
      3858.92       1.4220642      0.12667470
      3862.78       1.4319376      0.12679923
      3866.64       1.4119436      0.12961553
      3870.51       1.4380460      0.12968534
      3874.38       1.4589983      0.12975716
      3878.26       1.4385351      0.12983062
      3882.13       1.3698231      0.12990585
      3886.02       1.2992994      0.12998253
      3889.90       1.2297552      0.13006052
      3893.79       1.1301784      0.13013963
      3897.69       1.0449106      0.13021978
      3901.59       1.0020574      0.13030077
      3905.49      0.98013146      0.13038247
      3909.39      0.96350613      0.13310512
      3913.30      0.98277177      0.13319131
      3917.22       1.0248930      0.13327801
      3921.13       1.0914936      0.13336507
      3925.06       1.1966948      0.13345235
      3928.98       1.2049821      0.13353998
      3932.91       1.2723925      0.13362730
      3936.84       1.3537290      0.13371439
      3940.78       1.4303965      0.13380155
      3944.72       1.4878683      0.13388788
      3948.67       1.5023059      0.13397368
      3952.61       1.4710784      0.13405917
      3956.57       1.4250773      0.13414343
      3960.52       1.4210818      0.13422678
      3964.48       1.3914409      0.13762013
      3968.45       1.3679608      0.13766644
      3972.42       1.3391334      0.13771274
      3976.39       1.2872645      0.13775957
      3980.37       1.2768639      0.13780651
      3984.35       1.2811410      0.13785313
      3988.33       1.3316519      0.14143725
      3992.32       1.3987066      0.14151765
      3996.31       1.4354273      0.14159577
      4000.31       1.4789974      0.14167185
      4004.31       1.5691234      0.14174658
      4008.31       1.6015039      0.14181808
      4012.32       1.6007529      0.14188720
      4016.33       1.5583729      0.14195467
      4020.35       1.5581226      0.14201872
      4024.37       1.5184898      0.14208018
      4028.40       1.4780355      0.14213982
      4032.42       1.4731845      0.14219582
      4036.46       1.4827986      0.14224897
      4040.50       1.5238060      0.14229922
      4044.54       1.5044792      0.14234666
      4048.58       1.4734623      0.14239220
      4052.63       1.4521720      0.14243372
      4056.68       1.4565110      0.14247242
      4060.74       1.4459573      0.14250911
      4064.80       1.4454623      0.14254183
      4068.86       1.4357049      0.14257154
      4072.93       1.4074115      0.14259838
      4077.01       1.4182024      0.14262226
      4081.08       1.4466461      0.14264417
      4085.17       1.3941626      0.14266231
      4089.25       1.2680192      0.14267760
      4093.34       1.1683059      0.14269101
      4097.43       1.1648135      0.14270083
      4101.53       1.1773706      0.14270795
      4105.63       1.1999470      0.14271234
      4109.74       1.2005752      0.14271428
      4113.85       1.1924480      0.14271483
      4117.96       1.2071423      0.14271190
      4122.08       1.2320086      0.14270678
      4126.20       1.2828837      0.14270029
      4130.33       1.3285222      0.14269087
      4134.46       1.3730952      0.14267943
      4138.59       1.4034939      0.14266702
      4142.73       1.4652790      0.14265197
      4146.88       1.5420447      0.14263540
      4151.02       1.6008580      0.14261743
      4155.18       1.6354389      0.14259809
      4159.33       1.5969058      0.14257819
      4163.49       1.5263539      0.14255663
      4167.65       1.4911744      0.14253427
      4171.82       1.4762077      0.14251174
      4175.99       1.5148966      0.14248799
      4180.17       1.5439339      0.14246394
      4184.35       1.5690726      0.14243968
      4188.54       1.5845354      0.14241537
      4192.72       1.5933267      0.14239169
      4196.92       1.6294294      0.13924548
      4201.11       1.6377343      0.13922494
      4205.31       1.6293810      0.13920517
      4209.52       1.6324091      0.13918585
      4213.73       1.6364269      0.13916745
      4217.94       1.6124341      0.13915028
      4222.16       1.5980117      0.13913422
      4226.38       1.5786622      0.13911967
      4230.61       1.5578028      0.13910684
      4234.84       1.4997140      0.13909592
      4239.08       1.4524652      0.13908711
      4243.32       1.4667249      0.13908070
      4247.56       1.5171878      0.13907693
      4251.81       1.5349380      0.13907584
      4256.06       1.5523513      0.13907810
      4260.32       1.5809318      0.13908374
      4264.58       1.6161717      0.13909305
      4268.84       1.6430453      0.13910639
      4273.11       1.6874288      0.13912353
      4277.38       1.7095149      0.13559659
      4281.66       1.7553721      0.13903484
      4285.94       1.7824350      0.13897257
      4290.23       1.8323878      0.13891362
      4294.52       1.8501539      0.13885862
      4298.81       1.8115750      0.13880803
      4303.11       1.7800794      0.13876173
      4307.42       1.7904501      0.13872025
      4311.72       1.8313301      0.13868386
      4316.04       1.8376492      0.13865293
      4320.35       1.8706138      0.13862765
      4324.67       1.9327177      0.13860856
      4329.00       1.9811775      0.13859592
      4333.33       1.9810591      0.13858989
      4337.66       1.9814880      0.13528552
      4342.00       2.0326756      0.13518371
      4346.34       2.0290121      0.13508786
      4350.69       2.0439508      0.13499822
      4355.04       2.0873218      0.13491544
      4359.39       2.0829080      0.13483906
      4363.75       2.1022136      0.13823308
      4368.12       2.0516877      0.13816809
      4372.48       2.0348046      0.13811141
      4376.86       2.0231333      0.13806359
      4381.23       1.9479902      0.13802503
      4385.61       1.8910531      0.13799610
      4390.00       1.8483794      0.13484354
      4394.39       1.7944514      0.13470498
      4398.79       1.7654652      0.13457572
      4403.18       1.7918581      0.13445626
      4407.59       1.8545362      0.13434606
      4412.00       1.8917537      0.13424577
      4416.41       1.8966325      0.13415608
      4420.82       1.9384828      0.13407669
      4425.25       2.0263821      0.13744317
      4429.67       2.0307607      0.13738421
      4434.10       2.0693542      0.13442488
      4438.54       2.1689196      0.13424626
      4442.97       2.1979944      0.13407912
      4447.42       2.2285963      0.13392464
      4451.86       2.2988946      0.13378354
      4456.32       2.3414418      0.13365501
      4460.77       2.3523961      0.13353984
      4465.24       2.3263799      0.13343845
      4469.70       2.3127089      0.13335121
      4474.17       2.3304569      0.13056766
      4478.65       2.3509005      0.13376525
      4483.12       2.4117065      0.13355940
      4487.61       2.4968670      0.13337028
      4492.09       2.5546032      0.13319654
      4496.59       2.5887241      0.13303932
      4501.08       2.6445054      0.13289894
      4505.58       2.7136055      0.13277502
      4510.09       2.7680866      0.13266830
      4514.60       2.8299730      0.12987839
      4519.12       2.9096566      0.12980795
      4523.63       3.0514642      0.13285427
      4528.16       3.1112548      0.13264297
      4532.69       3.2110354      0.13245138
      4537.22       3.3669443      0.13228015
      4541.76       3.4438412      0.13212836
      4546.30       3.5008242      0.13199679
      4550.85       3.5971069      0.12919469
      4555.40       3.6917637      0.12910713
      4559.95       3.8097010      0.12903809
      4564.51       3.9254939      0.13195774
      4569.08       3.9232154      0.13174333
      4573.65       3.9401940      0.13155267
      4578.22       3.9081456      0.13138487
      4582.80       3.8425998      0.12855566
      4587.38       3.7706734      0.12844097
      4591.97       3.6408759      0.12834713
      4596.56       3.4853964      0.12827478
      4601.16       3.3440252      0.12822454
      4605.76       3.1431834      0.13090632
      4610.37       2.9472830      0.13071091
      4614.98       2.7624881      0.12786472
      4619.59       2.6301315      0.12773039
      4624.21       2.5114707      0.12761970
      4628.84       2.3690892      0.12753298
      4633.47       2.2304660      0.12747097
      4638.10       2.1531187      0.12743441
      4642.74       2.1380023      0.12995595
      4647.38       2.1224246      0.12710776
      4652.03       2.0892947      0.12696319
      4656.68       2.0532314      0.12684505
      4661.34       2.0690037      0.12675372
      4666.00       2.0812377      0.12668987
      4670.67       2.0723231      0.12665441
      4675.33       2.0596132      0.12645561
      4680.01       2.0514447      0.12628279
      4684.69       2.0305094      0.12613902
      4689.38       2.0147838      0.12602459
      4694.07       1.9827129      0.12594005
      4698.76       1.9766835      0.12588589
      4703.46       1.9688794      0.12292081
      4708.16       1.9761298      0.12556236
      4712.87       1.9736011      0.12540035
      4717.58       1.9809218      0.12526965
      4722.30       1.9404141      0.12517162
      4727.03       1.9051384      0.12510678
      4731.75       1.9303383      0.12218292
      4736.48       1.9332296      0.12198644
      4741.22       1.9616105      0.12462015
      4745.96       1.9647490      0.12448191
      4750.71       1.9524419      0.12437872
      4755.46       1.8888504      0.12162382
      4760.22       1.8108756      0.12138826
      4764.97       1.7708341      0.12118732
      4769.74       1.7497762      0.12379799
      4774.51       1.6866594      0.12366105
      4779.29       1.6679221      0.12356212
      4784.07       1.6847496      0.12077136
      4788.85       1.7141383      0.12053880
      4793.64       1.7190623      0.12034276
      4798.43       1.6957951      0.12293868
      4803.23       1.6637685      0.12281324
      4808.03       1.7174932      0.12012399
      4812.84       1.7328417      0.11986417
      4817.66       1.7565163      0.11964404
      4822.48       1.8091460      0.11946319
      4827.30       1.8506702      0.12205428
      4832.12       1.8663776      0.11943594
      4836.96       1.8203782      0.11915499
      4841.79       1.7528585      0.11891672
      4846.63       1.6945817      0.11871986
      4851.48       1.6281349      0.12127779
      4856.33       1.5847953      0.11870224
      4861.19       1.5505417      0.11840630
      4866.05       1.5241034      0.11815541
      4870.92       1.5559259      0.11794901
      4875.79       1.5746972      0.11778685
      4880.66       1.6005623      0.11791852
      4885.55       1.5918937      0.11761496
      4890.43       1.5610798      0.11735890
      4895.32       1.5646963      0.11714994
      4900.22       1.6445664      0.11474387
      4905.12       1.6800893      0.11708609
      4910.02       1.6946581      0.11678245
      4914.94       1.7077188      0.11652871
      4919.85       1.7307278      0.11632433
      4924.77       1.7557654      0.11393880
      4929.70       1.7189215      0.11620863
      4934.62       1.7138312      0.11591336
      4939.56       1.7428036      0.11566962
      4944.50       1.7534448      0.11325841
      4949.44       1.7523433      0.11311991
      4954.39       1.7637302      0.11529342
      4959.35       1.8068476      0.11501386
      4964.31       1.8294634      0.11257895
      4969.27       1.8437747      0.11241300
      4974.24       1.8657670      0.11229456
      4979.22       1.8802010      0.11434982
      4984.20       1.8964908      0.11409484
      4989.18       1.9082286      0.11170390
      4994.17       1.8906303      0.11156324
      4999.16       1.8689368      0.11367049
      5004.16       1.8366941      0.11339007
      5009.17       1.7938434      0.11098746
      5014.18       1.7671546      0.11082825
      5019.19       1.7521365      0.11072083
      5024.21       1.6912015      0.11266910
      5029.23       1.5840012      0.11025976
      5034.26       1.5444746      0.11008613
      5039.30       1.4981481      0.10996615
      5044.34       1.4595263      0.11192882
      5049.39       1.4818003      0.10951784
      5054.43       1.5210807      0.10933429
      5059.49       1.5435849      0.10920616
      5064.55       1.5723224      0.10913451
      5069.61       1.6714606      0.10876086
      5074.68       1.7002793      0.10857143
      5079.76       1.7425806      0.10843931
      5084.84       1.7572189      0.10603427
      5089.92       1.7610144      0.10798732
      5095.01       1.8179755      0.10779683
      5100.11       1.8382129      0.10766565
      5105.21       1.8207943      0.10526111
      5110.31       1.8319519      0.10719814
