# starting wavelength =        3678.2800
# ending wavelength =        7455.9400
# O2 telluric scale =        0
# O2 telluric shift =        0
# H2O telluric scale =        0
# H2O telluric shift =        0
      3681.83      0.59877555     0.031832928
      3685.51      0.60945207     0.026205315
      3689.20      0.61959180     0.022653698
      3692.88      0.62595512     0.019855884
      3696.58      0.63204542     0.017657046
      3700.27      0.63543176     0.016270741
      3703.98      0.64231234     0.014878099
      3707.68      0.64937769     0.013801190
      3711.39      0.66061177     0.012826780
      3715.10      0.67044337     0.012208350
      3718.81      0.67276490     0.011724323
      3722.53      0.67240342     0.011357323
      3726.26      0.66960959     0.011026472
      3729.98      0.67059940     0.010756876
      3733.71      0.66889170     0.010464610
      3737.45      0.66640904     0.010280911
      3741.18      0.66668800     0.010124718
      3744.93      0.66314232    0.0099909906
      3748.67      0.66402289    0.0099039203
      3752.42      0.66253758    0.0099262850
      3756.17      0.66056190    0.0099486218
      3759.93      0.65927227    0.0098620799
      3763.69      0.66169533    0.0098840706
      3767.45      0.65829359    0.0099080960
      3771.22      0.65605891    0.0098699830
      3774.99      0.65160855    0.0098441696
      3778.77      0.64275107    0.0098668527
      3782.54      0.63690551    0.0098300396
      3786.33      0.63068203    0.0098542287
      3790.11      0.62859650    0.0098291874
      3793.90      0.63099557    0.0097904898
      3797.70      0.63740639    0.0098150932
      3801.50      0.64248941    0.0098414284
      3805.30      0.64164669    0.0097514980
      3809.10      0.64143448    0.0097781926
      3812.91      0.64355558    0.0097403892
      3816.73      0.64966017    0.0097667654
      3820.54      0.65187002    0.0097936062
      3824.36      0.66016745    0.0097031661
      3828.19      0.66504540    0.0097305829
      3832.02      0.67184283    0.0097573944
      3835.85      0.68179082    0.0097215997
      3839.68      0.68894724    0.0097494222
      3843.52      0.69575974    0.0097249217
      3847.37      0.69627768    0.0096867606
      3851.22      0.70281313    0.0097149742
      3855.07      0.70969117    0.0096795619
      3858.92      0.70987122    0.0097085554
      3862.78      0.71105332    0.0097392169
      3866.64      0.71608823    0.0096462383
      3870.51      0.71833592    0.0096760143
      3874.38      0.72360379    0.0097087937
      3878.26      0.72879021    0.0096714394
      3882.13      0.73500103    0.0097033327
      3886.02      0.73604616    0.0096687038
      3889.90      0.73762601    0.0096405283
      3893.79      0.73354825    0.0096754186
      3897.69      0.73626082    0.0096380191
      3901.59      0.73734880    0.0096711648
      3905.49      0.73660691    0.0096364395
      3909.39      0.74170159    0.0096702951
      3913.30      0.74387083    0.0097056749
      3917.22      0.73957440    0.0096086498
      3921.13      0.73968473    0.0096429518
      3925.06      0.74575585    0.0096077925
      3928.98      0.74964519    0.0096446286
      3932.91      0.75057288    0.0096811003
      3936.84      0.75305571    0.0096461770
      3940.78      0.75660335    0.0096847899
      3944.72      0.76179358    0.0096487736
      3948.67      0.76747526    0.0096887495
      3952.61      0.76887568    0.0097294244
      3956.57      0.77342767    0.0096256363
      3960.52      0.77438595    0.0096685699
      3964.48      0.78140181    0.0096314884
      3968.45      0.79169545    0.0096721668
      3972.42      0.80161992    0.0096375826
      3976.39      0.81137367    0.0096806079
      3980.37      0.82346882    0.0097237715
      3984.35      0.83245628    0.0096891862
      3988.33      0.83842421    0.0097350732
      3992.32      0.84776147    0.0096989549
      3996.31      0.85296517    0.0097456431
      4000.31      0.86073577    0.0097120016
      4004.31      0.87520033    0.0097582707
      4008.31      0.87491165    0.0098076123
      4012.32      0.88220834    0.0097737337
      4016.33      0.88824882    0.0097448675
      4020.35      0.89026943    0.0097093813
      4024.37      0.89313790    0.0097635550
      4028.40      0.89007246    0.0097261325
      4032.42      0.89017738    0.0097768506
      4036.46      0.89256272    0.0097420876
      4040.50      0.89480261    0.0097980896
      4044.54      0.89786824    0.0097616002
      4048.58      0.90588751    0.0098160357
      4052.63      0.91721169    0.0098780101
      4056.68      0.92431433    0.0098402314
      4060.74      0.92932001    0.0098037906
      4064.80      0.92917117    0.0097688209
      4068.86      0.93773073    0.0097443646
      4072.93      0.94648192    0.0097075806
      4077.01      0.96156664    0.0096723135
      4081.08      0.97150487    0.0096381716
      4085.17      0.98187987    0.0096139526
      4089.25      0.98246391    0.0095777563
      4093.34      0.98741066    0.0095428530
      4097.43      0.98876873    0.0094263249
      4101.53      0.98331835    0.0093939056
      4105.63      0.97877079    0.0094501901
      4109.74      0.97853784    0.0094159787
      4113.85      0.98171896    0.0093010261
      4117.96      0.98400381    0.0092688602
      4122.08      0.98515368    0.0092375315
      4126.20      0.99227376    0.0092912416
      4130.33      0.99461609    0.0091774341
      4134.46      0.99884846    0.0091454236
      4138.59       1.0030030    0.0091142979
      4142.73       1.0015471    0.0090841358
      4146.88       1.0066126    0.0090568483
      4151.02       1.0148176    0.0090248803
      4155.18       1.0157084    0.0089935974
      4159.33       1.0103050    0.0089631857
      4163.49       1.0105202    0.0089335007
      4167.65       1.0127659    0.0088255627
      4171.82       1.0195200    0.0088753185
      4175.99       1.0176213    0.0088449138
      4180.17       1.0106406    0.0088150689
      4184.35       1.0153576    0.0087117607
      4188.54       1.0222400    0.0086805981
      4192.72       1.0279710    0.0086501479
      4196.92       1.0352706    0.0086994499
      4201.11       1.0533845    0.0086699377
      4205.31       1.0702446    0.0085700387
      4209.52       1.0801955    0.0085395719
      4213.73       1.0947107    0.0085095624
      4217.94       1.0995414    0.0084799967
      4222.16       1.1005655    0.0084508485
      4226.38       1.1013627    0.0084223032
      4230.61       1.1095226    0.0084025011
      4234.84       1.1121251    0.0083729641
      4239.08       1.1224501    0.0083438036
      4243.32       1.1324825    0.0083150250
      4247.56       1.1452613    0.0082866006
      4251.81       1.1513297    0.0082585347
      4256.06       1.1618591    0.0081616253
      4260.32       1.1702121    0.0081346050
      4264.58       1.1855577    0.0081079559
      4268.84       1.1962782    0.0081551737
      4273.11       1.2106428    0.0081274064
      4277.38       1.2282813    0.0080999338
      4281.66       1.2435945    0.0080049083
      4285.94       1.2570787    0.0079782009
      4290.23       1.2666742    0.0079517255
      4294.52       1.2806986    0.0079256901
      4298.81       1.2856631    0.0079001000
      4303.11       1.2951879    0.0078746693
      4307.42       1.3075766    0.0078494137
      4311.72       1.3182043    0.0078243194
      4316.04       1.3244655    0.0077332619
      4320.35       1.3329767    0.0077077519
      4324.67       1.3453480    0.0077504418
      4329.00       1.3539102    0.0077251981
      4333.33       1.3605031    0.0077003057
      4337.66       1.3676569    0.0076755447
      4342.00       1.3742009    0.0076509213
      4346.34       1.3776089    0.0076264302
      4350.69       1.3854547    0.0076020534
      4355.04       1.3863680    0.0075171498
      4359.39       1.3851543    0.0074927077
      4363.75       1.3867916    0.0074686198
      4368.12       1.3959422    0.0074446426
      4372.48       1.4030954    0.0074208053
      4376.86       1.4087435    0.0073970856
      4381.23       1.4097672    0.0073734847
      4385.61       1.4119342    0.0073501358
      4390.00       1.4154685    0.0073269661
      4394.39       1.4110916    0.0073039659
      4398.79       1.4104906    0.0072812089
      4403.18       1.4151816    0.0072585466
      4407.59       1.4145895    0.0072359702
      4412.00       1.4091358    0.0071547076
      4416.41       1.4061626    0.0071324943
      4420.82       1.4027909    0.0071105173
      4425.25       1.4021587    0.0070887843
      4429.67       1.3963332    0.0070671300
      4434.10       1.3935543    0.0070455663
      4438.54       1.3876622    0.0070241279
      4442.97       1.3851647    0.0070027517
      4447.42       1.3787690    0.0069814642
      4451.86       1.3743241    0.0069604002
      4456.32       1.3656350    0.0069395944
      4460.77       1.3565882    0.0069188581
      4465.24       1.3507747    0.0068982105
      4469.70       1.3402125    0.0068776560
      4474.17       1.3328659    0.0068571959
      4478.65       1.3249710    0.0068368162
      4483.12       1.3156963    0.0068165206
      4487.61       1.3129814    0.0067964833
      4492.09       1.3014292    0.0067766533
      4496.59       1.2911649    0.0066998856
      4501.08       1.2861353    0.0066804079
      4505.58       1.2823612    0.0066610245
      4510.09       1.2762278    0.0066417348
      4514.60       1.2722376    0.0066226822
      4519.12       1.2716779    0.0066037854
      4523.63       1.2700491    0.0065851379
      4528.16       1.2663258    0.0065665583
      4532.69       1.2573844    0.0065481196
      4537.22       1.2541729    0.0065297966
      4541.76       1.2511517    0.0065115990
      4546.30       1.2493259    0.0064936423
      4550.85       1.2504726    0.0064758700
      4555.40       1.2486689    0.0064025350
      4559.95       1.2470123    0.0063846832
      4564.51       1.2465789    0.0063669651
      4569.08       1.2454702    0.0063493694
      4573.65       1.2487173    0.0063319163
      4578.22       1.2488997    0.0063145935
      4582.80       1.2460317    0.0062975652
      4587.38       1.2526534    0.0063310225
      4591.97       1.2544205    0.0063143063
      4596.56       1.2524980    0.0062455805
      4601.16       1.2561302    0.0062284903
      4605.76       1.2600252    0.0062115610
      4610.37       1.2635779    0.0061948000
      4614.98       1.2671887    0.0061783504
      4619.59       1.2730871    0.0061622114
      4624.21       1.2754908    0.0061462422
      4628.84       1.2824608    0.0060805895
      4633.47       1.2837629    0.0060651730
      4638.10       1.2890601    0.0060499698
      4642.74       1.2873094    0.0060349840
      4647.38       1.2883332    0.0060656670
      4652.03       1.2884011    0.0060501271
      4656.68       1.2867693    0.0059857866
      4661.34       1.2853427    0.0059708806
      4666.00       1.2886171    0.0059562263
      4670.67       1.2886295    0.0059418351
      4675.33       1.2869471    0.0059277070
      4680.01       1.2799928    0.0059140438
      4684.69       1.2756306    0.0058502265
      4689.38       1.2725719    0.0058813283
      4694.07       1.2720130    0.0058673243
      4698.76       1.2723407    0.0058536166
      4703.46       1.2679835    0.0058402175
      4708.16       1.2644351    0.0057787518
      4712.87       1.2565204    0.0057649500
      4717.58       1.2572258    0.0057514478
      4722.30       1.2521526    0.0057829099
      4727.03       1.2476185    0.0057699768
      4731.75       1.2343540    0.0057103779
      4736.48       1.2272387    0.0056968454
      4741.22       1.2227519    0.0056837619
      4745.96       1.2175148    0.0056710759
      4750.71       1.2139785    0.0056581091
      4755.46       1.2121671    0.0056447608
      4760.22       1.2124575    0.0056317996
      4764.97       1.2087271    0.0056192292
      4769.74       1.2094687    0.0055630953
      4774.51       1.2128624    0.0055516180
      4779.29       1.2196402    0.0055816898
      4784.07       1.2279261    0.0055693673
      4788.85       1.2318953    0.0055139994
      4793.64       1.2344185    0.0055026869
      4798.43       1.2400015    0.0054918326
      4803.23       1.2449690    0.0055211769
      4808.03       1.2524487    0.0054666624
      4812.84       1.2546476    0.0054557620
      4817.66       1.2542414    0.0054453507
      4822.48       1.2538839    0.0054354790
      4827.30       1.2596954    0.0054213622
      4832.12       1.2649973    0.0054108169
      4836.96       1.2666033    0.0054008702
      4841.79       1.2743438    0.0053477074
      4846.63       1.2798357    0.0053777673
      4851.48       1.2857404    0.0053677455
      4856.33       1.2884371    0.0053162224
      4861.19       1.2925859    0.0053056461
      4866.05       1.3001627    0.0053358609
      4870.92       1.3102044    0.0053265074
      4875.79       1.3195893    0.0052752925
      4880.66       1.3282392    0.0052653804
      4885.55       1.3408864    0.0052960781
      4890.43       1.3508735    0.0052459506
      4895.32       1.3603068    0.0052360584
      4900.22       1.3710616    0.0052268859
      4905.12       1.3767094    0.0052176615
      4910.02       1.3855612    0.0052078930
      4914.94       1.3993211    0.0051988423
      4919.85       1.4101540    0.0051513877
      4924.77       1.4178816    0.0051806227
      4929.70       1.4258844    0.0051716578
      4934.62       1.4341984    0.0051247245
      4939.56       1.4345844    0.0051543520
      4944.50       1.4404586    0.0051070960
      4949.44       1.4482304    0.0050993095
      4954.39       1.4533591    0.0050922728
      4959.35       1.4627929    0.0050821681
      4964.31       1.4729720    0.0050746308
      4969.27       1.4831163    0.0050680493
      4974.24       1.4935185    0.0050582967
      4979.22       1.5027703    0.0050512262
      4984.20       1.5101113    0.0050056147
      4989.18       1.5192344    0.0050352615
      4994.17       1.5290312    0.0050285742
      4999.16       1.5373479    0.0049831942
      5004.16       1.5512386    0.0050132553
      5009.17       1.5628377    0.0049691241
      5014.18       1.5703353    0.0049618070
      5019.19       1.5787126    0.0049922935
      5024.21       1.5892856    0.0049480615
      5029.23       1.5977001    0.0049413608
      5034.26       1.6043168    0.0049350847
      5039.30       1.6146667    0.0049280599
      5044.34       1.6233662    0.0049228123
      5049.39       1.6269208    0.0049154743
      5054.43       1.6346230    0.0049091315
      5059.49       1.6423028    0.0049034705
      5064.55       1.6471176    0.0048968317
      5069.61       1.6542771    0.0048559127
      5074.68       1.6594302    0.0048851414
      5079.76       1.6647137    0.0048440623
      5084.84       1.6682632    0.0048739191
      5089.92       1.6698194    0.0048328017
      5095.01       1.6747670    0.0048279879
      5100.11       1.6797115    0.0048220549
      5105.21       1.6811242    0.0048171444
      5110.31       1.6834377    0.0048468058
      5115.42       1.6867599    0.0048068038
      5120.54       1.6917537    0.0048029182
      5125.66       1.6923895    0.0047968477
      5130.79       1.6924538    0.0047929585
      5135.92       1.6896232    0.0047874029
      5141.05       1.6876874    0.0047834517
      5146.20       1.6816066    0.0047783228
      5151.34       1.6827762    0.0047743380
      5156.49       1.6854518    0.0047350283
      5161.65       1.6880622    0.0047657114
      5166.81       1.6890871    0.0047268359
      5171.98       1.6883710    0.0047575431
      5177.15       1.6902223    0.0047189287
      5182.33       1.6904673    0.0047162760
      5187.51       1.6902505    0.0047113135
      5192.70       1.6974563    0.0047089324
      5197.89       1.6985253    0.0047041162
      5203.09       1.6995526    0.0046679084
      5208.29       1.6989125    0.0046972588
      5213.50       1.6968415    0.0046612600
      5218.72       1.6987879    0.0046907338
      5223.93       1.6948648    0.0046550537
      5229.16       1.6886012    0.0046844912
      5234.39       1.6848529    0.0046491689
      5239.62       1.6773645    0.0046461068
      5244.86       1.6749964    0.0046436759
      5250.11       1.6745059    0.0046406784
      5255.36       1.6718137    0.0046386009
      5260.61       1.6680452    0.0046355518
      5265.87       1.6593029    0.0046338359
      5271.14       1.6556061    0.0046308505
      5276.41       1.6518338    0.0045960792
      5281.69       1.6449087    0.0046265056
      5286.97       1.6439095    0.0045916718
      5292.26       1.6413659    0.0046225488
      5297.55       1.6344334    0.0046204340
      5302.85       1.6219936    0.0045864757
      5308.15       1.6096262    0.0046167962
      5313.46       1.5965022    0.0045827267
      5318.77       1.5870729    0.0046135664
      5324.09       1.5757461    0.0045793926
      5329.42       1.5609385    0.0045788654
      5334.75       1.5502765    0.0045764500
      5340.08       1.5396921    0.0045757277
      5345.42       1.5330008    0.0045432492
      5350.77       1.5251811    0.0045730778
      5356.12       1.5155711    0.0045729825
      5361.48       1.5058293    0.0045708884
      5366.83       1.4947030    0.0045704855
      5372.20       1.4876502    0.0045385024
      5377.58       1.4784636    0.0045684693
      5382.95       1.4726179    0.0045686067
      5388.34       1.4682123    0.0045365359
      5393.72       1.4635671    0.0045669833
      5399.12       1.4537537    0.0045357683
      5404.52       1.4439737    0.0045352541
      5409.92       1.4359986    0.0045660938
      5415.33       1.4277111    0.0045348477
      5420.75       1.4219798    0.0045346970
      5426.17       1.4146320    0.0045035826
      5431.60       1.4062875    0.0045346036
      5437.03       1.3947163    0.0045347174
      5442.47       1.3861686    0.0045038776
      5447.91       1.3776855    0.0045350497
      5453.36       1.3663813    0.0045354014
      5458.81       1.3517237    0.0045046531
      5464.27       1.3363764    0.0045060955
      5469.73       1.3237294    0.0045050083
      5475.20       1.3147058    0.0045060613
      5480.68       1.3017015    0.0045076038
      5486.16       1.2891433    0.0045068152
      5491.65       1.2792349    0.0045079279
      5497.14       1.2716314    0.0045095272
      5502.64       1.2620714    0.0044800042
      5508.14       1.2566916    0.0045103941
      5513.65       1.2516049    0.0045119917
      5519.16       1.2489308    0.0044830239
      5524.68       1.2489711    0.0044842123
      5530.20       1.2472942    0.0045150522
      5535.73       1.2436594    0.0045170167
      5541.27       1.2385835    0.0044879575
      5546.81       1.2371719    0.0044894462
      5552.36       1.2357766    0.0045205960
      5557.91       1.2327259    0.0044923210
      5563.47       1.2287393    0.0044938336
      5569.04       1.2253714    0.0044956463
      5574.60       1.2267427    0.0044670667
      5580.18       1.2242863    0.0044988932
      5585.76       1.2160355    0.0045006086
      5591.35       1.2076696    0.0045026471
      5596.94       1.2029721    0.0044741383
      5602.53       1.2000324    0.0044766945
      5608.14       1.1941383    0.0045083459
      5613.75       1.1884880    0.0045104568
      5619.36       1.1817001    0.0044820103
      5624.98       1.1744304    0.0044846293
      5630.60       1.1692607    0.0044875002
      5636.23       1.1628481    0.0044905859
      5641.87       1.1556180    0.0044907485
      5647.51       1.1498237    0.0044933512
      5653.16       1.1452614    0.0044962018
