# starting wavelength =        3678.2800
# ending wavelength =        7455.9400
# O2 telluric scale =        0
# O2 telluric shift =        0
# H2O telluric scale =        0
# H2O telluric shift =        0
      3681.83      0.92986095     0.045521145
      3685.51      0.90997297     0.037479116
      3689.20      0.88778227     0.032403938
      3692.88      0.86422836     0.028405857
      3696.58      0.84614620     0.025263730
      3700.27      0.83289490     0.023286347
      3703.98      0.82917817     0.021296182
      3707.68      0.82630803     0.019757470
      3711.39      0.82296201     0.018365672
      3715.10      0.81793484     0.017482779
      3718.81      0.80954626     0.016792115
      3722.53      0.81649607     0.016270189
      3726.26      0.81405026     0.015798442
      3729.98      0.81279330     0.015414332
      3733.71      0.80760440     0.014998589
      3737.45      0.80873531     0.014737386
      3741.18      0.80520286     0.014515521
      3744.93      0.79731473     0.014325780
      3748.67      0.79411389     0.014205705
      3752.42      0.78519245     0.014242505
      3756.17      0.79675529     0.014279277
      3759.93      0.80147172     0.014159783
      3763.69      0.80835988     0.014196021
      3767.45      0.80630274     0.014235206
      3771.22      0.80732200     0.014186055
      3774.99      0.80846974     0.014152665
      3778.77      0.81250840     0.014189897
      3782.54      0.81208048     0.014142496
      3786.33      0.81432573     0.014181887
      3790.11      0.81248272     0.014149523
      3793.90      0.82141706     0.014099293
      3797.70      0.82049552     0.014139263
      3801.50      0.82452719     0.014181742
      3805.30      0.82910100     0.014056680
      3809.10      0.82604788     0.014099647
      3812.91      0.81912635     0.014050509
      3816.73      0.82319369     0.014093013
      3820.54      0.82723364     0.014136197
      3824.36      0.83829545     0.014010097
      3828.19      0.84703180     0.014054084
      3832.02      0.85428849     0.014097211
      3835.85      0.84855024     0.014050758
      3839.68      0.85738224     0.014095339
      3843.52      0.86768415     0.014063409
      3847.37      0.88871968     0.014013424
      3851.22      0.90194771     0.014058548
      3855.07      0.91028533     0.014012460
      3858.92      0.91613034     0.014058710
      3862.78      0.92041063     0.014107389
      3866.64      0.91872725     0.013976962
      3870.51      0.92984932     0.014024326
      3874.38      0.93190835     0.014076053
      3878.26      0.93784376     0.014026937
      3882.13      0.93883434     0.014077378
      3886.02      0.93583367     0.014032136
      3889.90      0.93063840     0.013994558
      3893.79      0.92834595     0.014049342
      3897.69      0.92138395     0.013999894
      3901.59      0.91064222     0.014052183
      3905.49      0.91002411     0.014006609
      3909.39      0.90824181     0.014059850
      3913.30      0.89557697     0.014115349
      3917.22      0.88869978     0.013978259
      3921.13      0.88184600     0.014032147
      3925.06      0.86961912     0.013985743
      3928.98      0.86249676     0.014043311
      3932.91      0.85939998     0.014100366
      3936.84      0.86079676     0.014054208
      3940.78      0.85910762     0.014114371
      3944.72      0.87435312     0.014066541
      3948.67      0.89544811     0.014128692
      3952.61      0.89627652     0.014191867
      3956.57      0.90066837     0.014044303
      3960.52      0.91142517     0.014110746
      3964.48      0.91992836     0.014061158
      3968.45      0.93641402     0.014124304
      3972.42      0.94915273     0.014078264
      3976.39      0.96161324     0.014144845
      3980.37      0.97507063     0.014211629
      3984.35      0.98573780     0.014165505
      3988.33      0.98774156     0.014236266
      3992.32       1.0028702     0.014187816
      3996.31       1.0018157     0.014259742
      4000.31       1.0101464     0.014214834
      4004.31       1.0228775     0.014286143
      4008.31       1.0275906     0.014361959
      4012.32       1.0370386     0.014316607
      4016.33       1.0438266     0.014277136
      4020.35       1.0375284     0.014230190
      4024.37       1.0453644     0.014312179
      4028.40       1.0501839     0.014261447
      4032.42       1.0544255     0.014339134
      4036.46       1.0616906     0.014292311
      4040.50       1.0489134     0.014377843
      4044.54       1.0577968     0.014328301
      4048.58       1.0697941     0.014411525
      4052.63       1.0728276     0.014505840
      4056.68       1.0866880     0.014454301
      4060.74       1.0825937     0.014404650
      4064.80       1.0902823     0.014357118
      4068.86       1.0941270     0.014323704
      4072.93       1.1053391     0.014273387
      4077.01       1.1020014     0.014225228
      4081.08       1.0986904     0.014178661
      4085.17       1.0987950     0.014145437
      4089.25       1.0997623     0.014095736
      4093.34       1.0923129     0.014047879
      4097.43       1.0900517     0.013879195
      4101.53       1.0849925     0.013834839
      4105.63       1.0946699     0.013920539
      4109.74       1.0950598     0.013873481
      4113.85       1.0940087     0.013706783
      4117.96       1.0880918     0.013662565
      4122.08       1.0892823     0.013619525
      4126.20       1.1010286     0.013701319
      4130.33       1.1050125     0.013536026
      4134.46       1.1095354     0.013491808
      4138.59       1.1083743     0.013448838
      4142.73       1.1179099     0.013407219
      4146.88       1.1201567     0.013368852
      4151.02       1.1166346     0.013324467
      4155.18       1.1051591     0.013281033
      4159.33       1.1000280     0.013238828
      4163.49       1.0992326     0.013197630
      4167.65       1.0970932     0.013040322
      4171.82       1.0911456     0.013115973
      4175.99       1.0932032     0.013073552
      4180.17       1.0951771     0.013031894
      4184.35       1.0943798     0.012881157
      4188.54       1.0993270     0.012837421
      4192.72       1.1021288     0.012794679
      4196.92       1.1056210     0.012869491
      4201.11       1.1294807     0.012828044
      4205.31       1.1425244     0.012682019
      4209.52       1.1596157     0.012639665
      4213.73       1.1700708     0.012596663
      4217.94       1.1894828     0.012554896
      4222.16       1.2032704     0.012513686
      4226.38       1.2058362     0.012473311
      4230.61       1.2123327     0.012445218
      4234.84       1.2282573     0.012403273
      4239.08       1.2460094     0.012361828
      4243.32       1.2584042     0.012320894
      4247.56       1.2609949     0.012280424
      4251.81       1.2631532     0.012240432
      4256.06       1.2662877     0.012098080
      4260.32       1.2678353     0.012059505
      4264.58       1.2683586     0.012021438
      4268.84       1.2797401     0.012092622
      4273.11       1.2912387     0.012052805
      4277.38       1.3047494     0.012013369
      4281.66       1.3206865     0.011873464
      4285.94       1.3304378     0.011835050
      4290.23       1.3562807     0.011796923
      4294.52       1.3749028     0.011759391
      4298.81       1.3890197     0.011722469
      4303.11       1.4060582     0.011685725
      4307.42       1.4276456     0.011649195
      4311.72       1.4499363     0.011612851
      4316.04       1.4696992     0.011478398
      4320.35       1.4897839     0.011441323
      4324.67       1.4995756     0.011505327
      4329.00       1.5095814     0.011468561
      4333.33       1.5134287     0.011432261
      4337.66       1.5075771     0.011396104
      4342.00       1.5128587     0.011360102
      4346.34       1.5114501     0.011324239
      4350.69       1.5093251     0.011288497
      4355.04       1.5069962     0.011162749
      4359.39       1.5044847     0.011126810
      4363.75       1.4980153     0.011091345
      4368.12       1.5031501     0.011056004
      4372.48       1.5119155     0.011020807
      4376.86       1.5107722     0.010985737
      4381.23       1.5098826     0.010950795
      4385.61       1.5245466     0.010916178
      4390.00       1.5297840     0.010881773
      4394.39       1.5270462     0.010847574
      4398.79       1.5259643     0.010813691
      4403.18       1.5249591     0.010779894
      4407.59       1.5245658     0.010746178
      4412.00       1.5319121     0.010625289
      4416.41       1.5296517     0.010592025
      4420.82       1.5283166     0.010559064
      4425.25       1.5328639     0.010526420
      4429.67       1.5206090     0.010493844
      4434.10       1.5077253     0.010461353
      4438.54       1.4989075     0.010429006
      4442.97       1.4924462     0.010396703
      4447.42       1.4834769     0.010364485
      4451.86       1.4787526     0.010332553
      4456.32       1.4648282     0.010300958
      4460.77       1.4521913     0.010269426
      4465.24       1.4434610     0.010237972
      4469.70       1.4262011     0.010206620
      4474.17       1.4109830     0.010175352
      4478.65       1.3947208     0.010144170
      4483.12       1.3925900     0.010113063
      4487.61       1.3873531     0.010082300
      4492.09       1.3893910     0.010051796
      4496.59       1.3949721    0.0099365955
      4501.08       1.3882371    0.0099065311
      4505.58       1.3853241    0.0098765641
      4510.09       1.3762114    0.0098466937
      4514.60       1.3644899    0.0098171306
      4519.12       1.3574947    0.0097877596
      4523.63       1.3504281    0.0097586928
      4528.16       1.3480562    0.0097297340
      4532.69       1.3392277    0.0097009154
      4537.22       1.3358639    0.0096722304
      4541.76       1.3306734    0.0096436883
      4546.30       1.3292755    0.0096154652
      4550.85       1.3259360    0.0095874750
      4555.40       1.3145302    0.0094768904
      4559.95       1.3148912    0.0094487124
      4564.51       1.3182654    0.0094206906
      4569.08       1.3323355    0.0093928105
      4573.65       1.3391245    0.0093651063
      4578.22       1.3474778    0.0093375591
      4582.80       1.3523080    0.0093104053
      4587.38       1.3457062    0.0093575110
      4591.97       1.3419041    0.0093307233
      4596.56       1.3476454    0.0092266873
      4601.16       1.3497229    0.0091992823
      4605.76       1.3510561    0.0091720801
      4610.37       1.3473551    0.0091450886
      4614.98       1.3496307    0.0091185221
      4619.59       1.3497443    0.0090923748
      4624.21       1.3555999    0.0090664605
      4628.84       1.3565596    0.0089668084
      4633.47       1.3521921    0.0089416391
      4638.10       1.3466472    0.0089167513
      4642.74       1.3355119    0.0088921479
      4647.38       1.3322576    0.0089343751
      4652.03       1.3266065    0.0089088625
      4656.68       1.3265557    0.0088110210
      4661.34       1.3210378    0.0087863960
      4666.00       1.3133575    0.0087621065
      4670.67       1.3014528    0.0087381753
      4675.33       1.2894800    0.0087145963
      4680.01       1.2886298    0.0086916739
      4684.69       1.2864116    0.0085945236
      4689.38       1.2800696    0.0086368443
      4694.07       1.2792816    0.0086133001
      4698.76       1.2735731    0.0085901739
      4703.46       1.2768538    0.0085674705
      4708.16       1.2822890    0.0084737201
      4712.87       1.2810742    0.0084503885
      4717.58       1.2826375    0.0084274687
      4722.30       1.2820424    0.0084698637
      4727.03       1.2774145    0.0084476887
      4731.75       1.2695875    0.0083566257
      4736.48       1.2593258    0.0083335428
      4741.22       1.2527410    0.0083110860
      4745.96       1.2482048    0.0082891846
      4750.71       1.2471926    0.0082657086
      4755.46       1.2450401    0.0082427787
      4760.22       1.2444626    0.0082203883
      4764.97       1.2449550    0.0081985420
      4769.74       1.2475470    0.0081125323
      4774.51       1.2487072    0.0080922571
      4779.29       1.2475234    0.0081319024
      4784.07       1.2523785    0.0081103153
      4788.85       1.2469056    0.0080254235
      4793.64       1.2554474    0.0080052700
      4798.43       1.2602845    0.0079857661
      4803.23       1.2583833    0.0080240596
      4808.03       1.2585024    0.0079404073
      4812.84       1.2553138    0.0079207616
      4817.66       1.2548963    0.0079018109
      4822.48       1.2536949    0.0078836093
      4827.30       1.2534571    0.0078579278
      4832.12       1.2540940    0.0078387055
      4836.96       1.2606544    0.0078203295
      4841.79       1.2758204    0.0077387066
      4846.63       1.2806321    0.0077775233
      4851.48       1.2843350    0.0077589714
      4856.33       1.2900961    0.0076797398
      4861.19       1.2960523    0.0076603730
      4866.05       1.2972239    0.0076991824
      4870.92       1.3002349    0.0076815116
      4875.79       1.3079677    0.0076027676
      4880.66       1.3124919    0.0075842852
      4885.55       1.3256015    0.0076235500
      4890.43       1.3287843    0.0075464151
      4895.32       1.3284647    0.0075279056
      4900.22       1.3343565    0.0075104078
      4905.12       1.3437252    0.0074913793
      4910.02       1.3579786    0.0074729985
      4914.94       1.3733796    0.0074556192
      4919.85       1.3842267    0.0073824328
      4924.77       1.3958057    0.0074191821
      4929.70       1.4131785    0.0074018881
      4934.62       1.4234071    0.0073295101
      4939.56       1.4246074    0.0073666439
      4944.50       1.4349896    0.0072938416
      4949.44       1.4430032    0.0072782023
      4954.39       1.4530833    0.0072636173
      4959.35       1.4617215    0.0072431210
      4964.31       1.4670819    0.0072277956
      4969.27       1.4677943    0.0072138154
      4974.24       1.4717546    0.0071937599
      4979.22       1.4780056    0.0071790630
      4984.20       1.4749505    0.0071088201
      4989.18       1.4726755    0.0071454669
      4994.17       1.4782272    0.0071312749
      4999.16       1.4907240    0.0070614295
      5004.16       1.5034969    0.0070985144
      5009.17       1.5180577    0.0070305331
      5014.18       1.5257675    0.0070153959
      5019.19       1.5354596    0.0070529240
      5024.21       1.5447670    0.0069848411
      5029.23       1.5525661    0.0069705934
      5034.26       1.5603298    0.0069553241
      5039.30       1.5737779    0.0069405997
      5044.34       1.5796338    0.0069267471
      5049.39       1.5931981    0.0069115653
      5054.43       1.6014720    0.0068977789
      5059.49       1.6046915    0.0068833119
      5064.55       1.6077700    0.0068691005
      5069.61       1.6102641    0.0068059973
      5074.68       1.6139377    0.0068412366
      5079.76       1.6137387    0.0067779740
      5084.84       1.6158868    0.0068139891
      5089.92       1.6249734    0.0067507537
      5095.01       1.6335374    0.0067390915
      5100.11       1.6408347    0.0067242173
      5105.21       1.6475050    0.0067124148
      5110.31       1.6477349    0.0067479207
      5115.42       1.6490584    0.0066864136
      5120.54       1.6513356    0.0066760222
      5125.66       1.6585693    0.0066609362
      5130.79       1.6608923    0.0066505345
      5135.92       1.6557087    0.0066361485
      5141.05       1.6567613    0.0066256563
      5146.20       1.6588649    0.0066118585
      5151.34       1.6586572    0.0066013147
      5156.49       1.6608519    0.0065411246
      5161.65       1.6500752    0.0065776353
      5166.81       1.6435163    0.0065181479
      5171.98       1.6424670    0.0065546015
      5177.15       1.6440510    0.0064955394
      5182.33       1.6467903    0.0064851649
      5187.51       1.6472456    0.0064733454
      5192.70       1.6460651    0.0064633718
      5197.89       1.6441200    0.0064517176
      5203.09       1.6416192    0.0063962367
      5208.29       1.6393116    0.0064305905
      5213.50       1.6385978    0.0063754691
      5218.72       1.6392949    0.0064099167
      5223.93       1.6439579    0.0063553224
      5229.16       1.6421121    0.0063896466
      5234.39       1.6440199    0.0063356284
      5239.62       1.6484399    0.0063247927
      5244.86       1.6471019    0.0063164836
      5250.11       1.6471636    0.0063057499
      5255.36       1.6490139    0.0062979351
      5260.61       1.6423773    0.0062871442
      5265.87       1.6401084    0.0062798261
      5271.14       1.6360663    0.0062691391
      5276.41       1.6286067    0.0062162916
      5281.69       1.6275599    0.0062516498
      5286.97       1.6171536    0.0061988179
      5292.26       1.6053949    0.0062347154
      5297.55       1.5969997    0.0062252503
      5302.85       1.5847905    0.0061737495
      5308.15       1.5745066    0.0062088003
      5313.46       1.5626371    0.0061572569
      5318.77       1.5550319    0.0061929445
      5324.09       1.5531310    0.0061413676
      5329.42       1.5462347    0.0061341453
      5334.75       1.5379043    0.0061260378
      5340.08       1.5230507    0.0061185856
      5345.42       1.5128187    0.0060695286
      5350.77       1.5040971    0.0061037244
      5356.12       1.4978409    0.0060971528
      5361.48       1.4907332    0.0060895361
      5366.83       1.4807806    0.0060825814
      5372.20       1.4735367    0.0060344519
      5377.58       1.4693219    0.0060687074
      5382.95       1.4677089    0.0060625228
      5388.34       1.4560415    0.0060144322
      5393.72       1.4500021    0.0060492610
      5399.12       1.4417488    0.0060024235
      5404.52       1.4329469    0.0059954988
      5409.92       1.4267813    0.0060306994
      5415.33       1.4202144    0.0059840547
      5420.75       1.4173603    0.0059776506
      5426.17       1.4096930    0.0059312639
      5431.60       1.3984250    0.0059667277
      5437.03       1.3804488    0.0059607400
      5442.47       1.3632489    0.0059148892
      5447.91       1.3486893    0.0059504964
      5453.36       1.3352087    0.0059448877
      5458.81       1.3153594    0.0058993319
      5464.27       1.3035323    0.0058952358
      5469.73       1.2935750    0.0058893455
      5475.20       1.2832328    0.0058847884
      5480.68       1.2721125    0.0058808957
      5486.16       1.2564545    0.0058754586
      5491.65       1.2483324    0.0058710511
      5497.14       1.2383382    0.0058673024
      5502.64       1.2267028    0.0058238516
      5508.14       1.2198535    0.0058583026
      5513.65       1.2178262    0.0058546316
      5519.16       1.2137559    0.0058120778
      5524.68       1.2142568    0.0058079673
      5530.20       1.2111857    0.0058429568
      5535.73       1.2069501    0.0058398684
      5541.27       1.2032632    0.0057974395
      5546.81       1.2012591    0.0057938319
      5552.36       1.1955232    0.0058291775
      5557.91       1.1925823    0.0057879414
      5563.47       1.1859083    0.0057844549
      5569.04       1.1832641    0.0057813831
      5574.60       1.1797864    0.0057399695
      5580.18       1.1693608    0.0057761922
      5585.76       1.1632723    0.0057730898
      5591.35       1.1593419    0.0057704362
      5596.94       1.1598449    0.0057293561
      5602.53       1.1530818    0.0057274655
      5608.14       1.1484312    0.0057634380
      5613.75       1.1437230    0.0057610094
      5619.36       1.1398266    0.0057202570
      5624.98       1.1330820    0.0057185833
      5630.60       1.1252160    0.0057172549
      5636.23       1.1177792    0.0057162427
      5641.87       1.1162151    0.0057127711
      5647.51       1.1175772    0.0057112113
      5653.16       1.1086106    0.0057100027
