# starting wavelength =        3473.3600
# ending wavelength =        9279.6000
# O2 telluric scale =        0
# O2 telluric shift =        0
# H2O telluric scale =        0
# H2O telluric shift =        0
      3474.45      0.32630195     0.019757067
      3477.92      0.34374526     0.016728252
      3481.40      0.36774875     0.014320517
      3484.88      0.39250948     0.012411565
      3488.37      0.41585080     0.010627354
      3491.86      0.43527929    0.0095158564
      3495.35      0.45721471    0.0086495599
      3498.84      0.47575327    0.0079762056
      3502.34      0.49555796    0.0074558814
      3505.84      0.51701616    0.0071177122
      3509.35      0.53744461    0.0067768354
      3512.86      0.55279369    0.0065071970
      3516.37      0.57411008    0.0062908730
      3519.89      0.59203568    0.0060690248
      3523.41      0.61023776    0.0059276493
      3526.93      0.62820494    0.0058085283
      3530.46      0.64430429    0.0056832042
      3533.99      0.65863260    0.0055903819
      3537.53      0.67208845    0.0055098492
      3541.06      0.68717046    0.0054674773
      3544.60      0.70551465    0.0054484227
      3548.15      0.71416396    0.0054352942
      3551.70      0.72211089    0.0054502601
      3555.25      0.73741361    0.0054367695
      3558.80      0.74737257    0.0054189771
      3562.36      0.75962545    0.0054051509
      3565.92      0.77033469    0.0053919514
      3569.49      0.78161878    0.0054076788
      3573.06      0.79037290    0.0053604312
      3576.64      0.80064436    0.0053756880
      3580.21      0.80778270    0.0053632676
      3583.79      0.81738923    0.0053440444
      3587.38      0.82595159    0.0053313693
      3590.96      0.82998037    0.0053460139
      3594.55      0.82983139    0.0053329869
      3598.15      0.83217571    0.0053147558
      3601.75      0.83705691    0.0053014510
      3605.35      0.84122755    0.0053174253
      3608.96      0.84337039    0.0052701688
      3612.56      0.84303625    0.0052857762
      3616.18      0.84390289    0.0053012860
      3619.79      0.84825079    0.0052543456
      3623.41      0.85544434    0.0052701054
      3627.04      0.85923558    0.0052565961
      3630.66      0.86534277    0.0052391500
      3634.29      0.87007521    0.0052254568
      3637.93      0.86933227    0.0052414450
      3641.57      0.87745764    0.0052291859
      3645.21      0.88085887    0.0052101605
      3648.86      0.88652615    0.0051977146
      3652.50      0.89104378    0.0052129761
      3656.16      0.89168090    0.0051665004
      3659.81      0.89394073    0.0051819363
      3663.47      0.89896438    0.0051985744
      3667.14      0.90028177    0.0051509729
      3670.80      0.90304726    0.0051673410
      3674.48      0.90581052    0.0051551792
      3678.15      0.91220127    0.0051363271
      3681.83      0.91483636    0.0051240190
      3685.51      0.92090037    0.0051396579
      3689.20      0.92824211    0.0051222688
      3692.88      0.93133759    0.0051087614
      3696.58      0.94122448    0.0050915990
      3700.27      0.94497227    0.0050780235
      3703.98      0.94564684    0.0050951523
      3707.68      0.94807212    0.0050770516
      3711.39      0.95012749    0.0050643037
      3715.10      0.95374390    0.0050809389
      3718.81      0.95874522    0.0050335567
      3722.53      0.96317922    0.0050501692
      3726.26      0.96560229    0.0050676830
      3729.98      0.96933375    0.0050195276
      3733.71      0.97504401    0.0050368330
      3737.45      0.97715429    0.0049889590
      3741.18      0.98223617    0.0050061411
      3744.93      0.98283551    0.0050234744
      3748.67      0.98288710    0.0049755546
      3752.42      0.98637789    0.0049927276
      3756.17      0.98818395    0.0049798363
      3759.93      0.98931323    0.0049621954
      3763.69      0.99140382    0.0049801351
      3767.45      0.98902265    0.0049317788
      3771.22      0.98630532    0.0049496598
      3774.99      0.98663363    0.0049674094
      3778.77      0.98440437    0.0049192971
      3782.54      0.98264273    0.0049367605
      3786.33      0.98243626    0.0049200332
      3790.11      0.98164178    0.0049063177
      3793.90      0.98177556    0.0049253058
      3797.70      0.98577381    0.0049072709
      3801.50      0.98328218    0.0048951201
      3805.30      0.98248543    0.0048769311
      3809.10      0.97968763    0.0048957316
      3812.91      0.97799423    0.0048825292
      3816.73      0.97900645    0.0048652607
      3820.54      0.97915627    0.0048843663
      3824.36      0.97854506    0.0048349042
      3828.19      0.98137778    0.0048541907
      3832.02      0.98492303    0.0048364753
      3835.85      0.98728268    0.0048241653
      3839.68      0.98883994    0.0048425228
      3843.52      0.99230229    0.0048255153
      3847.37      0.99861402    0.0048450972
      3851.22       1.0042829    0.0047950846
      3855.07       1.0144214    0.0048149132
      3858.92       1.0230761    0.0047973096
      3862.78       1.0304607    0.0047849543
      3866.64       1.0408036    0.0048040613
      3870.51       1.0519946    0.0047870870
      3874.38       1.0646406    0.0048075561
      3878.26       1.0760336    0.0047566809
      3882.13       1.0841966    0.0047775807
      3886.02       1.0937187    0.0047598469
      3889.90       1.1006377    0.0047479466
      3893.79       1.1065374    0.0047298546
      3897.69       1.1114681    0.0047501951
      3901.59       1.1159211    0.0047338649
      3905.49       1.1211600    0.0047198910
      3909.39       1.1269129    0.0047423064
      3913.30       1.1334489    0.0047242040
      3917.22       1.1386227    0.0047454400
      3921.13       1.1453253    0.0046945673
      3925.06       1.1540861    0.0047152130
      3928.98       1.1603388    0.0046983268
      3932.91       1.1650676    0.0047206933
      3936.84       1.1705749    0.0047031673
      3940.78       1.1764527    0.0046911744
      3944.72       1.1835543    0.0046731270
      3948.67       1.1900304    0.0046952243
      3952.61       1.1962076    0.0046788277
      3956.57       1.2028498    0.0046649318
      3960.52       1.2085820    0.0046479234
      3964.48       1.2181452    0.0046714219
      3968.45       1.2211594    0.0046536976
      3972.42       1.2230542    0.0046771232
      3976.39       1.2251297    0.0046240369
      3980.37       1.2242894    0.0046465476
      3984.35       1.2227700    0.0046298281
      3988.33       1.2230617    0.0046542033
      3992.32       1.2250619    0.0046366430
      3996.31       1.2249720    0.0046613308
      4000.31       1.2227519    0.0046068700
      4004.31       1.2194730    0.0046304942
      4008.31       1.2193965    0.0046137472
      4012.32       1.2171535    0.0046393642
      4016.33       1.2123483    0.0046217154
      4020.35       1.2100815    0.0046474554
      4024.37       1.2089821    0.0045920414
      4028.40       1.2062919    0.0046165939
      4032.42       1.2064337    0.0045996002
      4036.46       1.2070550    0.0045834098
      4040.50       1.2084844    0.0046092806
      4044.54       1.2114150    0.0045921235
      4048.58       1.2169711    0.0046194454
      4052.63       1.2215013    0.0045621049
      4056.68       1.2277840    0.0045881231
      4060.74       1.2361184    0.0045714051
      4064.80       1.2432153    0.0045554012
      4068.86       1.2527886    0.0044977569
      4072.93       1.2612439    0.0045237317
      4077.01       1.2677684    0.0045074311
      4081.08       1.2745263    0.0044513722
      4085.17       1.2818276    0.0044342796
      4089.25       1.2897206    0.0044600102
      4093.34       1.2956388    0.0044055665
      4097.43       1.3010696    0.0043882635
      4101.53       1.3059268    0.0043715896
      4105.63       1.3102802    0.0043970278
      4109.74       1.3160015    0.0043430526
      4113.85       1.3195533    0.0043260348
      4117.96       1.3212906    0.0043095592
      4122.08       1.3262040    0.0042986769
      4126.20       1.3304603    0.0042813396
      4130.33       1.3356605    0.0042645165
      4134.46       1.3398956    0.0042481156
      4138.59       1.3439498    0.0041956170
      4142.73       1.3493706    0.0042202939
      4146.88       1.3585743    0.0042035785
      4151.02       1.3665893    0.0041873381
      4155.18       1.3771646    0.0041354617
      4159.33       1.3894216    0.0041201905
      4163.49       1.4017159    0.0041437081
      4167.65       1.4171998    0.0041275041
      4171.82       1.4293196    0.0040760850
      4175.99       1.4404713    0.0040607399
      4180.17       1.4537513    0.0040457292
      4184.35       1.4662894    0.0040683158
      4188.54       1.4750171    0.0040173081
      4192.72       1.4811674    0.0040018447
      4196.92       1.4873650    0.0039866942
      4201.11       1.4959183    0.0039718518
      4205.31       1.5024742    0.0039231612
      4209.52       1.5100881    0.0039438615
      4213.73       1.5140201    0.0039286441
      4217.94       1.5181898    0.0039136385
      4222.16       1.5228735    0.0038989848
      4226.38       1.5274972    0.0038514524
      4230.61       1.5315636    0.0038361998
      4234.84       1.5357502    0.0038211866
      4239.08       1.5399074    0.0038416648
      4243.32       1.5440569    0.0038269881
      4247.56       1.5486161    0.0037810303
      4251.81       1.5509436    0.0037659042
      4256.06       1.5536950    0.0037509238
      4260.32       1.5581442    0.0037361713
      4264.58       1.5610188    0.0037216239
      4268.84       1.5625033    0.0036764566
      4273.11       1.5639870    0.0036969923
      4277.38       1.5702725    0.0036821068
      4281.66       1.5772979    0.0036673925
      4285.94       1.5835431    0.0036528417
      4290.23       1.5888686    0.0036384457
      4294.52       1.5912675    0.0035940350
      4298.81       1.5929396    0.0035800322
      4303.11       1.5919931    0.0035661537
      4307.42       1.5896808    0.0035524005
      4311.72       1.5865266    0.0035711282
      4316.04       1.5806428    0.0035568139
      4320.35       1.5726826    0.0035426438
      4324.67       1.5680136    0.0034993168
      4329.00       1.5630733    0.0034855373
      4333.33       1.5601977    0.0034718141
      4337.66       1.5588046    0.0034582698
      4342.00       1.5588183    0.0034447755
      4346.34       1.5592712    0.0034313735
      4350.69       1.5619693    0.0034180585
      4355.04       1.5674869    0.0033767499
      4359.39       1.5758383    0.0033632253
      4363.75       1.5854724    0.0033497902
      4368.12       1.5950258    0.0033663165
      4372.48       1.6053443    0.0033529250
      4376.86       1.6163800    0.0033396030
      4381.23       1.6251990    0.0033263926
      4385.61       1.6302094    0.0033132613
      4390.00       1.6352846    0.0033001957
      4394.39       1.6412562    0.0032871941
      4398.79       1.6472444    0.0032484694
      4403.18       1.6539286    0.0032353618
      4407.59       1.6622940    0.0032223181
      4412.00       1.6708951    0.0032093324
      4416.41       1.6817337    0.0031964019
      4420.82       1.6945769    0.0031835272
      4425.25       1.7059290    0.0031707087
      4429.67       1.7170879    0.0031579445
      4434.10       1.7295301    0.0031452396
      4438.54       1.7417734    0.0031325976
      4442.97       1.7547857    0.0031200307
      4447.42       1.7686907    0.0031075086
      4451.86       1.7821723    0.0030950758
      4456.32       1.7947103    0.0030579956
      4460.77       1.8087026    0.0030457138
      4465.24       1.8198549    0.0030334786
      4469.70       1.8289273    0.0030212899
      4474.17       1.8404335    0.0030091433
      4478.65       1.8488096    0.0029970398
      4483.12       1.8556786    0.0029849481
      4487.61       1.8627701    0.0029729266
      4492.09       1.8685334    0.0029609613
      4496.59       1.8747835    0.0029490493
      4501.08       1.8790879    0.0029371845
      4505.58       1.8854969    0.0029253626
      4510.09       1.8892730    0.0029135791
      4514.60       1.8940337    0.0029018316
      4519.12       1.8996048    0.0028901228
      4523.63       1.9051859    0.0028784378
      4528.16       1.9096825    0.0028668004
      4532.69       1.9107484    0.0028305289
      4537.22       1.9128696    0.0028190762
      4541.76       1.9135972    0.0028076662
      4546.30       1.9134038    0.0027963046
      4550.85       1.9104003    0.0027849972
      4555.40       1.9064574    0.0027737482
      4559.95       1.9025907    0.0027625644
      4564.51       1.8981137    0.0027514498
      4569.08       1.8945888    0.0027404139
      4573.65       1.8904118    0.0027293770
      4578.22       1.8863422    0.0027184279
      4582.80       1.8829295    0.0027075243
      4587.38       1.8787069    0.0026966824
      4591.97       1.8763901    0.0026620626
      4596.56       1.8735160    0.0026511726
      4601.16       1.8691592    0.0026403586
      4605.76       1.8648622    0.0026296165
      4610.37       1.8599717    0.0026189461
      4614.98       1.8524037    0.0026083403
      4619.59       1.8419492    0.0025978009
      4624.21       1.8317049    0.0026073932
      4628.84       1.8176417    0.0025969062
      4633.47       1.8011691    0.0025645563
      4638.10       1.7835218    0.0025539507
      4642.74       1.7667980    0.0025434120
      4647.38       1.7508397    0.0025329457
      4652.03       1.7353612    0.0025225492
      4656.68       1.7187002    0.0025122325
      4661.34       1.7008816    0.0025020006
      4666.00       1.6846134    0.0024709492
      4670.67       1.6695574    0.0024609884
      4675.33       1.6554130    0.0024511275
      4680.01       1.6415642    0.0024413731
      4684.69       1.6290606    0.0024496060
      4689.38       1.6175198    0.0024395232
      4694.07       1.6097860    0.0024295392
      4698.76       1.6040082    0.0023993488
      4703.46       1.5964246    0.0023896592
      4708.16       1.5894079    0.0023800501
      4712.87       1.5804266    0.0023705670
      4717.58       1.5713691    0.0023612109
      4722.30       1.5593174    0.0023314903
      4727.03       1.5479245    0.0023394070
      4731.75       1.5382039    0.0023299391
      4736.48       1.5271712    0.0023205918
      4741.22       1.5173139    0.0023113652
      4745.96       1.5073079    0.0023022623
      4750.71       1.4975461    0.0022733999
      4755.46       1.4914825    0.0022641062
      4760.22       1.4859436    0.0022549392
      4764.97       1.4825068    0.0022627496
      4769.74       1.4810274    0.0022350679
      4774.51       1.4814709    0.0022257791
      4779.29       1.4840362    0.0022166332
      4784.07       1.4897197    0.0022076398
      4788.85       1.4955158    0.0021988050
      4793.64       1.5005782    0.0021883175
      4798.43       1.5065199    0.0021792531
      4803.23       1.5118604    0.0021703577
      4808.03       1.5167788    0.0021615393
      4812.84       1.5211643    0.0021354036
      4817.66       1.5263239    0.0021269994
      4822.48       1.5314278    0.0021337267
      4827.30       1.5353036    0.0021250129
      4832.12       1.5392657    0.0020992698
      4836.96       1.5414095    0.0020910099
      4841.79       1.5434376    0.0020829349
      4846.63       1.5455727    0.0020893070
      4851.48       1.5470515    0.0020639776
      4856.33       1.5485071    0.0020558573
      4861.19       1.5502250    0.0020479338
      4866.05       1.5523049    0.0020228561
      4870.92       1.5542264    0.0020293643
      4875.79       1.5571087    0.0020213937
      4880.66       1.5598006    0.0020136270
      4885.55       1.5638002    0.0019889823
      4890.43       1.5676561    0.0019954136
      4895.32       1.5728548    0.0019876340
      4900.22       1.5775349    0.0019636921
      4905.12       1.5839203    0.0019557613
      4910.02       1.5901057    0.0019622193
      4914.94       1.5963418    0.0019546745
      4919.85       1.6031824    0.0019309989
      4924.77       1.6095014    0.0019233145
      4929.70       1.6155726    0.0019297845
      4934.62       1.6227537    0.0019066570
      4939.56       1.6302823    0.0018989888
      4944.50       1.6396426    0.0018915792
      4949.44       1.6485966    0.0018827043
      4954.39       1.6579064    0.0018751143
      4959.35       1.6682057    0.0018677774
      4964.31       1.6776554    0.0018460134
      4969.27       1.6868558    0.0018516513
      4974.24       1.6955665    0.0018298165
      4979.22       1.7044836    0.0018228910
      4984.20       1.7118685    0.0018285496
      4989.18       1.7177246    0.0018070170
      4994.17       1.7254280    0.0018001961
      4999.16       1.7347840    0.0018058125
      5004.16       1.7438262    0.0017845730
      5009.17       1.7539967    0.0017778829
      5014.18       1.7639785    0.0017714832
      5019.19       1.7740301    0.0017625182
      5024.21       1.7851917    0.0017559967
      5029.23       1.7972768    0.0017353593
      5034.26       1.8091445    0.0017409354
      5039.30       1.8215880    0.0017345897
      5044.34       1.8328467    0.0017141121
      5049.39       1.8451895    0.0017197393
      5054.43       1.8568026    0.0016997705
      5059.49       1.8670401    0.0016932429
      5064.55       1.8777224    0.0016989424
      5069.61       1.8886105    0.0016791249
      5074.68       1.8995244    0.0016728432
      5079.76       1.9099034    0.0016653039
      5084.84       1.9197670    0.0016589314
      5089.92       1.9313807    0.0016517474
      5095.01       1.9423862    0.0016452880
      5100.11       1.9527638    0.0016391727
      5105.21       1.9633506    0.0016318608
      5110.31       1.9729905    0.0016256733
      5115.42       1.9830171    0.0016074533
      5120.54       1.9924024    0.0016124126
      5125.66       2.0002262    0.0015942435
      5130.79       2.0064959    0.0015993794
      5135.92       2.0124703    0.0015812715
      5141.05       2.0190642    0.0015757784
      5146.20       2.0262286    0.0015685531
      5151.34       2.0316972    0.0015630558
      5156.49       2.0376188    0.0015560369
      5161.65       2.0419805    0.0015505154
      5166.81       2.0464485    0.0015453575
      5171.98       2.0514910    0.0015381458
      5177.15       2.0543220    0.0015330137
      5182.33       2.0575032    0.0015260187
      5187.51       2.0600697    0.0015209065
      5192.70       2.0611275    0.0015140980
      5197.89       2.0629869    0.0015090145
      5203.09       2.0636353    0.0014920937
      5208.29       2.0650876    0.0014972895
      5213.50       2.0668732    0.0014805706
      5218.72       2.0667427    0.0014857459
      5223.93       2.0670490    0.0014692350
      5229.16       2.0662088    0.0014633397
      5234.39       2.0665945    0.0014580482
      5239.62       2.0678464    0.0014522390
      5244.86       2.0679906    0.0014470181
      5250.11       2.0674704    0.0014413317
      5255.36       2.0662630    0.0014361946
      5260.61       2.0643875    0.0014209153
      5265.87       2.0632813    0.0014255597
      5271.14       2.0624176    0.0014104491
      5276.41       2.0593089    0.0014150602
      5281.69       2.0558783    0.0014001309
      5286.97       2.0505577    0.0013943423
      5292.26       2.0456622    0.0013900174
      5297.55       2.0410907    0.0013842976
      5302.85       2.0356504    0.0013801129
      5308.15       2.0299652    0.0013744290
      5313.46       2.0244288    0.0013703828
      5318.77       2.0175842    0.0013647383
      5324.09       2.0116726    0.0013503688
      5329.42       2.0053384    0.0013552324
      5334.75       2.0010878    0.0013499423
