# starting wavelength =        3628.5988
# ending wavelength =        9433.7954
# O2 telluric scale =        0
# O2 telluric shift =        0
# H2O telluric scale =        0
# H2O telluric shift =        0
      3630.66       1.3898265     0.032971725
      3634.29       1.3964166     0.032908212
      3637.93       1.4022764     0.032845230
      3641.57       1.4024515     0.032575614
      3645.21       1.4019214     0.032510932
      3648.86       1.4059176     0.032446774
      3652.50       1.4112964     0.032383334
      3656.16       1.4104086     0.032467189
      3659.81       1.4190570     0.032202314
      3663.47       1.4280330     0.032137413
      3667.14       1.4349090     0.032073122
      3670.80       1.4403811     0.032009550
      3674.48       1.4500578     0.031749551
      3678.15       1.4605245     0.031687682
      3681.83       1.4716207     0.031626325
      3685.51       1.4697981     0.031701106
      3689.20       1.4693424     0.031442219
      3692.88       1.4797662     0.031379521
      3696.58       1.4857172     0.031317584
      3700.27       1.4848101     0.031256405
      3703.98       1.4865569     0.031195912
      3707.68       1.4814726     0.030937467
      3711.39       1.4830729     0.031204157
      3715.10       1.4840238     0.031353014
      3718.81       1.4799160     0.031493292
      3722.53       1.4735435     0.031682602
      3726.26       1.4688070     0.031834964
      3729.98       1.4656415     0.032072312
      3733.71       1.4616754     0.032239027
      3737.45       1.4348017     0.031101582
      3741.18       1.4083434     0.030774774
      3744.93       1.3904926     0.030531976
      3748.67       1.3890333     0.030353056
      3752.42       1.3924514     0.029952009
      3756.17       1.3855963     0.029887707
      3759.93       1.3727636     0.029936708
      3763.69       1.3647377     0.029921952
      3767.45       1.3557571     0.029737948
      3771.22       1.3531375     0.029765090
      3774.99       1.3472346     0.029803982
      3778.77       1.3367862     0.029853068
      3782.54       1.3248170     0.029773307
      3786.33       1.3193230     0.029931982
      3790.11       1.3159806     0.030003601
      3793.90       1.3113529     0.029960757
      3797.70       1.3105362     0.030034308
      3801.50       1.3111194     0.030109660
      3805.30       1.3036205     0.030295779
      3809.10       1.3034440     0.030251520
      3812.91       1.3012300     0.030321536
      3816.73       1.2923040     0.030389877
      3820.54       1.2861549     0.030455471
      3824.36       1.2897215     0.030315395
      3828.19       1.2871450     0.030545069
      3832.02       1.2819729     0.030589917
      3835.85       1.2755247     0.030406284
      3839.68       1.2686569     0.030435250
      3843.52       1.2629341     0.030457922
      3847.37       1.2621676     0.030474343
      3851.22       1.2630985     0.030395010
      3855.07       1.2610251     0.030385856
      3858.92       1.2596276     0.030369715
      3862.78       1.2555721     0.030123233
      3866.64       1.2503873     0.030081982
      3870.51       1.2405882     0.030122186
      3874.38       1.2314577     0.030011519
      3878.26       1.2271711     0.029666318
      3882.13       1.2284325     0.029536705
      3886.02       1.2249133     0.029401616
      3889.90       1.2320271     0.029198897
      3893.79       1.2285837     0.029045490
      3897.69       1.2266956     0.028888414
      3901.59       1.2296827     0.028728299
      3905.49       1.2331739     0.028400397
      3909.39       1.2267868     0.028312199
      3913.30       1.2208349     0.028139515
      3917.22       1.2154182     0.027809527
      3921.13       1.2157436     0.027639646
      3925.06       1.2194332     0.027469953
      3928.98       1.2294748     0.027204781
      3932.91       1.2359687     0.027034475
      3936.84       1.2415656     0.026866335
      3940.78       1.2474982     0.026701165
      3944.72       1.2517942     0.026779665
      3948.67       1.2563406     0.026747098
      3952.61       1.2618881     0.026805815
      3956.57       1.2681574     0.026775476
      3960.52       1.2802292     0.026390194
      3964.48       1.2945496     0.025840897
      3968.45       1.3041297     0.025617590
      3972.42       1.3114263     0.025431580
      3976.39       1.3180839     0.025277573
      3980.37       1.3271736     0.025077171
      3984.35       1.3321342     0.024994970
      3988.33       1.3345237     0.024935746
      3992.32       1.3392134     0.024781267
      3996.31       1.3445579     0.024770920
      4000.31       1.3489886     0.024953645
      4004.31       1.3509659     0.024897481
      4008.31       1.3558667     0.024989296
      4012.32       1.3601239     0.025119113
      4016.33       1.3678083     0.025542271
      4020.35       1.3713940     0.025472832
      4024.37       1.3757145     0.025253767
      4028.40       1.3795609     0.025103831
      4032.42       1.3834051     0.025039907
      4036.46       1.3876855     0.024825846
      4040.50       1.3934123     0.024710683
      4044.54       1.4594502     0.033802396
      4048.58       1.4698686     0.033490062
      4052.63       1.4766992     0.033638111
      4056.68       1.4773095     0.033860897
      4060.74       1.4774213     0.033831489
      4064.80       1.4826645     0.034482682
      4068.86       1.4870985     0.034830645
      4072.93       1.4875304     0.034851554
      4077.01       1.4844156     0.035638055
      4081.08       1.4835867     0.035976027
      4085.17       1.4801532     0.035852248
      4089.25       1.4777750     0.036126874
      4093.34       1.4648072     0.036814704
      4097.43       1.4574895     0.036417869
      4101.53       1.4536000     0.036524617
      4105.63       1.4536293     0.036857207
      4109.74       1.4527481     0.036198709
      4113.85       1.4552729     0.035879435
      4117.96       1.4599128     0.035526413
      4122.08       1.4646602     0.034992564
      4126.20       1.4692151     0.034544158
      4130.33       1.4736405     0.034085391
      4134.46       1.4804835     0.033428706
      4138.59       1.4843670     0.032946371
      4142.73       1.4881778     0.032479248
      4146.88       1.4978856     0.031887634
      4151.02       1.5043795     0.031463507
      4155.18       1.5083692     0.030793154
      4159.33       1.5148595     0.030452926
      4163.49       1.5205559     0.030487791
      4167.65       1.5157768     0.030146032
      4171.82       1.5143242     0.030098022
      4175.99       1.5162313     0.031076762
      4180.17       1.5090193     0.031819021
      4184.35       1.5035815     0.031141076
      4188.54       1.4998262     0.030718763
      4192.72       1.4903164     0.030001290
      4196.92       1.4860846     0.029615493
      4201.11       1.4834241     0.029243726
      4205.31       1.4803212     0.029159374
      4209.52       1.4766746     0.029081477
      4213.73       1.4680218     0.028959875
      4217.94       1.4632125     0.028876883
      4222.16       1.4562309     0.028800488
      4226.38       1.4458632     0.028677148
      4230.61       1.4384844     0.028595751
      4234.84       1.4314975     0.028234350
      4239.08       1.4214337     0.028393335
      4243.32       1.4125474     0.028315609
      4247.56       1.4048898     0.027958660
      4251.81       1.3995120     0.028114439
      4256.06       1.3950080     0.027754770
      4260.32       1.3855022     0.027684551
      4264.58       1.3737828     0.027834901
      4268.84       1.3631943     0.027480106
      4273.11       1.3523042     0.027412140
      4277.38       1.3338413     0.027279065
      4281.66       1.3227392     0.027206911
      4285.94       1.3124975     0.027141493
      4290.23       1.3060596     0.027005388
      4294.52       1.3074394     0.026935859
      4298.81       1.3069712     0.026590669
      4303.11       1.3066183     0.026733749
      4307.42       1.3067972     0.026666865
      4311.72       1.3078196     0.026320425
      4316.04       1.3045061     0.026463992
      4320.35       1.3086075     0.026125846
      4324.67       1.3088270     0.026052239
      4329.00       1.3071821     0.026196548
      4333.33       1.3084095     0.025856681
      4337.66       1.3123605     0.025995494
      4342.00       1.3176448     0.025663629
      4346.34       1.3201511     0.025589717
      4350.69       1.3246541     0.025472923
      4355.04       1.3270987     0.025395763
      4359.39       1.3325181     0.025325506
      4363.75       1.3428972     0.025204042
      4368.12       1.3467274     0.025130672
      4372.48       1.3515247     0.025014630
      4376.86       1.3542568     0.024937973
      4381.23       1.3532245     0.024623912
      4385.61       1.3615495     0.024747186
      4390.00       1.3681009     0.024674685
      4394.39       1.3785628     0.024366853
      4398.79       1.3848570     0.024482609
      4403.18       1.3897321     0.024174115
      4407.59       1.3985300     0.024292577
      4412.00       1.4036670     0.023982915
      4416.41       1.4078319     0.023919935
      4420.82       1.4080157     0.023793574
      4425.25       1.4061515     0.023728011
      4429.67       1.3978973     0.023841430
      4434.10       1.3983539     0.023537890
      4438.54       1.4004608     0.023477072
      4442.97       1.3961186     0.023349449
      4447.42       1.3953982     0.023286318
      4451.86       1.4023998     0.023162408
      4456.32       1.4031144     0.023097031
      4460.77       1.4029910     0.022800406
      4465.24       1.4080819     0.022909186
      4469.70       1.4077723     0.022617825
      4474.17       1.4123402     0.022722493
      4478.65       1.4174923     0.022434710
      4483.12       1.4206058     0.022364560
      4487.61       1.4237274     0.022473165
      4492.09       1.4279336     0.022181670
      4496.59       1.4317128     0.022286998
      4501.08       1.4369802     0.021999989
      4505.58       1.4368259     0.021933641
      4510.09       1.4362265     0.021819205
      4514.60       1.4346921     0.021751399
      4519.12       1.4317359     0.021638964
      4523.63       1.4282539     0.021569944
      4528.16       1.4265110     0.021459518
      4532.69       1.4255782     0.021389392
      4537.22       1.4216132     0.021120127
      4541.76       1.4166145     0.021209629
      4546.30       1.4116167     0.020940980
      4550.85       1.4077954     0.021030778
      4555.40       1.4079546     0.020762786
      4559.95       1.4103322     0.020852775
      4564.51       1.4106511     0.020585323
      4569.08       1.4102414     0.020527156
      4573.65       1.4050932     0.020408552
      4578.22       1.4036436     0.020349560
      4582.80       1.4050892     0.020232575
      4587.38       1.4015726     0.020172864
      4591.97       1.3968755     0.020057213
      4596.56       1.3923669     0.019996976
      4601.16       1.3868204     0.019882361
      4605.76       1.3866241     0.019821573
      4610.37       1.3879067     0.019565350
      4614.98       1.3866709     0.019647072
      4619.59       1.3832478     0.019393100
      4624.21       1.3808782     0.019473209
      4628.84       1.3800271     0.019221564
      4633.47       1.3759985     0.019300143
      4638.10       1.3776325     0.019050728
      4642.74       1.3780154     0.019127742
      4647.38       1.3749908     0.018880403
      4652.03       1.3766069     0.018955990
      4656.68       1.3774067     0.018710619
      4661.34       1.3791498     0.018649721
      4666.00       1.3817786     0.018541202
      4670.67       1.3815039     0.018480604
      4675.33       1.3803734     0.018372500
      4680.01       1.3749501     0.018137575
      4684.69       1.3705189     0.018204493
      4689.38       1.3706181     0.017971234
      4694.07       1.3694300     0.018036983
      4698.76       1.3638420     0.017805636
      4703.46       1.3603716     0.017870070
      4708.16       1.3596410     0.017640724
      4712.87       1.3588854     0.017703599
      4717.58       1.3599856     0.017476286
      4722.30       1.3559281     0.017537881
      4727.03       1.3512266     0.017312456
      4731.75       1.3512956     0.017372617
      4736.48       1.3504995     0.017149281
      4741.22       1.3509378     0.017042941
      4745.96       1.3475555     0.016986924
      4750.71       1.3407517     0.016880247
      4755.46       1.3389134     0.016825406
      4760.22       1.3462760     0.016718492
      4764.97       1.3372766     0.016664441
      4769.74       1.3300886     0.016557449
      4774.51       1.3257170     0.016504355
      4779.29       1.3259496     0.016397256
      4784.07       1.3223510     0.016184149
      4788.85       1.3208714     0.016237594
      4793.64       1.3182777     0.016025272
      4798.43       1.3163110     0.016078585
      4803.23       1.3115870     0.015867240
      4808.03       1.3075056     0.015920495
      4812.84       1.2986735     0.015709978
      4817.66       1.2921439     0.015612095
      4822.48       1.2868125     0.015553424
      4827.30       1.2800831     0.015455093
      4832.12       1.2782763     0.015397799
      4836.96       1.2773091     0.015298884
      4841.79       1.2769895     0.015099050
      4846.63       1.2767232     0.015143468
      4851.48       1.2750800     0.014946510
      4856.33       1.2745214     0.014988875
      4861.19       1.2711921     0.014794729
      4866.05       1.2792421     0.014835136
      4870.92       1.2640557     0.014644013
      4875.79       1.2736204     0.014543098
      4880.66       1.2743848     0.014584808
      4885.55       1.2816174     0.014392675
      4890.43       1.2879759     0.014432316
      4895.32       1.2889836     0.014243364
      4900.22       1.3154904     0.014144961
      4905.12       1.3208752     0.014095050
      4910.02       1.3079555     0.013995885
      4914.94       1.3025628     0.013947900
      4919.85       1.3107590     0.013848000
      4924.77       1.3141016     0.013663522
      4929.70       1.3136673     0.013701092
      4934.62       1.3100596     0.013603805
      4939.56       1.3113182     0.013423644
      4944.50       1.3160825     0.013457207
      4949.44       1.3143345     0.013277298
      4954.39       1.3072051     0.013311944
      4959.35       1.3072958     0.013132141
      4964.31       1.3099605     0.013040398
      4969.27       1.3105949     0.012988282
      4974.24       1.3093804     0.012895613
      4979.22       1.3131178     0.012805834
      4984.20       1.3143688     0.012752101
      4989.18       1.3099700     0.012661268
      4994.17       1.3046596     0.012609779
      4999.16       1.3007885     0.012518121
      5004.16       1.3008157     0.012351389
      5009.17       1.3017651     0.012376295
      5014.18       1.3018388     0.012286333
      5019.19       1.3005857     0.012120299
      5024.21       1.3015351     0.012145052
      5029.23       1.3014838     0.011982521
      5034.26       1.2988983     0.011891494
      5039.30       1.2987203     0.011846293
      5044.34       1.2994965     0.011754238
      5049.39       1.2984313     0.011664667
      5054.43       1.2975837     0.011618573
      5059.49       1.3001428     0.011527977
      5064.55       1.2945359     0.011371221
      5069.61       1.3065750     0.011392951
      5074.68       1.3071377     0.011303693
      5079.76       1.3106192     0.011149838
      5084.84       1.3115192     0.011169310
      5089.92       1.3104236     0.011015432
      5095.01       1.3131787     0.011036661
      5100.11       1.2956508     0.010947740
      5105.21       1.2849498     0.010796613
      5110.31       1.2891728     0.010712417
      5115.42       1.2906215     0.010664638
      5120.54       1.2845593     0.010579488
      5125.66       1.2816913     0.010496331
      5130.79       1.2808805     0.010448381
      5135.92       1.2738717     0.010364182
      5141.05       1.2665515     0.010281869
      5146.20       1.2803964     0.014494810
      5151.34       1.2718436     0.014436038
      5156.49       1.2626691     0.014311187
      5161.65       1.2564313     0.014194934
      5166.81       1.2534587     0.014134952
      5171.98       1.2486662     0.014011465
      5177.15       1.2491782     0.013896946
      5182.33       1.2471646     0.013836535
      5187.51       1.2400976     0.013715121
      5192.70       1.2369225     0.013415596
      5197.89       1.2395722     0.013310621
      5203.09       1.2439870     0.013421511
      5208.29       1.2445147     0.013126958
      5213.50       1.2550396     0.013022553
      5218.72       1.2629806     0.013130055
      5223.93       1.2740325     0.012840594
      5229.16       1.2787219     0.012735599
      5234.39       1.2763975     0.012841242
      5239.62       1.2748120     0.012556365
      5244.86       1.2813127     0.012451504
      5250.11       1.2839543     0.012555485
      5255.36       1.2850248     0.012274299
      5260.61       1.2888706     0.012169832
      5265.87       1.2885587     0.012070518
      5271.14       1.2902221     0.011995801
      5276.41       1.2948317     0.011890274
      5281.69       1.2905411     0.011790612
      5286.97       1.2868560     0.011719784
      5292.26       1.2918359     0.011613579
      5297.55       1.2984430     0.011512712
      5302.85       1.2949322     0.011263402
      5308.15       1.2907684     0.011339961
      5313.46       1.2882013     0.011237954
      5318.77       1.2872169     0.011141409
      5324.09       1.2887994     0.011069364
      5329.42       1.2824596     0.010966710
      5334.75       1.2741842     0.010868253
      5340.08       1.2800257     0.010628482
      5345.42       1.2824418     0.010698479
      5350.77       1.2686784     0.010598713
      5356.12       1.2599478     0.010369035
      5361.48       1.2483375     0.010265275
      5366.83       1.2397982     0.010332782
      5372.20       1.2389201     0.010235676
      5377.58       1.2335392     0.010008297
      5382.95       1.2312342    0.0099073172
      5388.34       1.2218857    0.0099719705
      5393.72       1.2184354    0.0097553885
      5399.12       1.2195787    0.0096535063
      5404.52       1.2189898    0.0095550103
      5409.92       1.2161350    0.0096164694
      5415.33       1.2164522    0.0094040980
      5420.75       1.2243335    0.0093040299
      5426.17       1.2252642    0.0092075970
      5431.60       1.2233861    0.0091588034
      5437.03       1.2190286    0.0090576673
      5442.47       1.2210084    0.0089593903
      5447.91       1.2184878    0.0088643138
      5453.36       1.2127506    0.0088160137
      5458.81       1.2079576    0.0087165213
      5464.27       1.2051678    0.0086200076
      5469.73       1.2014751    0.0085260707
      5475.20       1.1992478    0.0084790793
      5480.68       1.1957728    0.0083810682
      5486.16       1.1965564    0.0082858977
      5491.65       1.1973354    0.0081927743
      5497.14       1.2043739    0.0080042475
      5502.64       1.2122430    0.0080506840
      5508.14       1.2124387    0.0079564140
      5513.65       1.2146538    0.0078642416
      5519.16       1.2184040    0.0076811838
      5524.68       1.2277105    0.0075943424
      5530.20       1.2247955    0.0076325640
      5535.73       1.2242325    0.0075413339
      5541.27       1.2218387    0.0073631976
      5546.81       1.2191519    0.0072768875
      5552.36       1.2106480    0.0071921848
      5557.91       1.2036475    0.0072236537
      5563.47       1.1950989    0.0070503258
      5569.04       1.1878403    0.0069643451
      5574.60       1.1785500    0.0068800583
