# starting wavelength =        4011.6722
# ending wavelength =        10378.100
# O2 telluric scale =        0
# O2 telluric shift =        0
# H2O telluric scale =        0
# H2O telluric shift =        0
      4012.32      0.61141260     0.055305743
      4016.33      0.63091594     0.055146473
      4020.35      0.63905950     0.054987125
      4024.37      0.64846189     0.054828445
      4028.40      0.65008181     0.054669789
      4032.42      0.67163976     0.054511656
      4036.46      0.66622766     0.054353581
      4040.50      0.67727800     0.054195667
      4044.54      0.70403197     0.054037772
      4048.58      0.69890838     0.054230605
      4052.63      0.68783822     0.054486945
      4056.68      0.70419102     0.054328163
      4060.74      0.68039275     0.054169465
      4064.80      0.64529365     0.054010937
      4068.86      0.60753865     0.053853054
      4072.93      0.60504176     0.053695820
      4077.01      0.57785813     0.053538115
      4081.08      0.56166495     0.053739581
      4085.17      0.54852967     0.053581306
      4089.25      0.53750714     0.053423835
      4093.34      0.52027900     0.053267147
      4097.43      0.54339908     0.053111240
      4101.53      0.56250047     0.052955052
      4105.63      0.53081101     0.052799658
      4109.74      0.53570783     0.052999549
      4113.85      0.55663324     0.052840207
      4117.96      0.55801387     0.052681653
      4122.08      0.54755821     0.052523419
      4126.20      0.54584583     0.052365478
      4130.33      0.58217246     0.052208424
      4134.46      0.62236221     0.052412597
      4138.59      0.60601255     0.052255097
      4142.73      0.60955741     0.052098716
      4146.88      0.61968182     0.051942642
      4151.02      0.61166962     0.052206192
      4155.18      0.59111495     0.052050146
      4159.33      0.60891829     0.052266311
      4163.49      0.60024203     0.052110868
      4167.65      0.59002780     0.051956479
      4171.82      0.58233251     0.051802188
      4175.99      0.57267305     0.051649138
      4180.17      0.55873007     0.051847363
      4184.35      0.57474740     0.051688422
      4188.54      0.58090330     0.051530774
      4192.72      0.57567750     0.051374448
      4196.92      0.57562724     0.051218210
      4201.11      0.58122970     0.051441523
      4205.31      0.59518829     0.051286361
      4209.52      0.57677885     0.051132236
      4213.73      0.57460939     0.050979693
      4217.94      0.55469883     0.050828079
      4222.16      0.56105609     0.051031539
      4226.38      0.58025320     0.050873489
      4230.61      0.58071578     0.050716468
      4234.84      0.58831764     0.050560319
      4239.08      0.61918902     0.050793094
      4243.32      0.61153626     0.050638817
      4247.56      0.59054407     0.050485747
      4251.81      0.60486300     0.050334688
      4256.06      0.62675474     0.050106751
      4260.32      0.64440891     0.049948953
      4264.58      0.65588395     0.049793226
      4268.84      0.65180712     0.049638141
      4273.11      0.63971560     0.049877200
      4277.38      0.63128885     0.049714888
      4281.66      0.62193051     0.049554005
      4285.94      0.61487430     0.049394707
      4290.23      0.61472011     0.049629724
      4294.52      0.60473921     0.049473205
      4298.81      0.65505603     0.049318200
      4303.11      0.67139449     0.049165180
      4307.42      0.68133864     0.049403304
      4311.72      0.69403626     0.049241881
      4316.04      0.71691889     0.049081859
      4320.35      0.75025382     0.048924624
      4324.67      0.75764096     0.049172245
      4329.00      0.76318280     0.049018064
      4333.33      0.76769791     0.048866898
      4337.66      0.80756580     0.049106960
      4342.00      0.85036895     0.048945184
      4346.34      0.84630555     0.048786878
      4350.69      0.83860022     0.048632021
      4355.04      0.82100954     0.048895750
      4359.39      0.81409712     0.048270923
      4363.75      0.84467020     0.048108705
      4368.12      0.86549919     0.048362463
      4372.48      0.84444656     0.048206350
      4376.86      0.81164831     0.048053305
      4381.23      0.81334748     0.048314727
      4385.61      0.80701074     0.048149833
      4390.00      0.78373530     0.047988233
      4394.39      0.76122684     0.048259384
      4398.79      0.75684488     0.048104397
      4403.18      0.74447866     0.047953860
      4407.59      0.76895715     0.048215527
      4412.00      0.77352554     0.048052333
      4416.41      0.78958491     0.047418536
      4420.82      0.79261663     0.047704182
      4425.25      0.80584126     0.047534466
      4429.67      0.81785439     0.047369123
      4434.10      0.81957070     0.047649618
      4438.54      0.86982734     0.047492832
      4442.97      0.91015795     0.047341486
      4447.42      0.91589247     0.047618541
      4451.86      0.92043098     0.047453460
      4456.32      0.92480229     0.047294285
      4460.77      0.92399999     0.047600369
      4465.24      0.94200092     0.046934128
      4469.70      0.94998571     0.046767481
      4474.17      0.94938459     0.047062778
      4478.65      0.95597095     0.046908115
      4483.12      0.96152921     0.047210146
      4487.61      0.98144978     0.047040206
      4492.09       1.0092700     0.046877007
      4496.59       1.0468644     0.047199041
      4501.08       1.0867265     0.046519616
      4505.58       1.1488161     0.046350549
      4510.09       1.1696995     0.046660559
      4514.60       1.1852876     0.046505295
      4519.12       1.2120731     0.046821185
      4523.63       1.2436179     0.046650515
      4528.16       1.2567582     0.046487153
      4532.69       1.3027556     0.046829834
      4537.22       1.3089569     0.046124627
      4541.76       1.3042243     0.045956152
      4546.30       1.2985760     0.046288468
      4550.85       1.3134564     0.045604213
      4555.40       1.3395873     0.045431591
      4559.95       1.3235540     0.045269068
      4564.51       1.3160657     0.045598603
      4569.08       1.3129350     0.044912983
      4573.65       1.3239097     0.044746729
      4578.22       1.3404537     0.044589944
      4582.80       1.3671582     0.044398691
      4587.38       1.3580625     0.044228359
      4591.97       1.3504038     0.044069374
      4596.56       1.3070374     0.043888321
      4601.16       1.2531753     0.043715915
      4605.76       1.2217529     0.043553927
      4610.37       1.2205780     0.042921228
      4614.98       1.1876262     0.043205582
      4619.59       1.1677750     0.043042403
      4624.21       1.1496909     0.042414370
      4628.84       1.1498071     0.042699069
      4633.47       1.1252826     0.042535016
      4638.10       1.1009246     0.041912322
      4642.74       1.0890319     0.042194551
      4647.38       1.0676993     0.042030499
      4652.03       1.0395279     0.041413083
      4656.68       1.0178752     0.041273396
      4661.34       1.0245842     0.041528533
      4666.00       1.0168879     0.040917082
      4670.67       1.0254594     0.040779144
      4675.33       1.0224506     0.040573777
      4680.01       1.0075123     0.040425673
      4684.69      0.99437661     0.040289821
      4689.38      0.98714195     0.040084166
      4694.07      0.99905670     0.039938629
      4698.76       1.0173495     0.039805647
      4703.46       1.0311229     0.039597375
      4708.16       1.0174037     0.039455154
      4712.87       1.0059708     0.038870191
      4717.58       1.0223567     0.039114729
      4722.30       1.0453479     0.038976311
      4727.03       1.0603033     0.038392475
      4731.75       1.0605524     0.038636150
      4736.48       1.0556197     0.038502325
      4741.22       1.0496037     0.037918329
      4745.96       1.0535362     0.038162390
      4750.71       1.0671567     0.037597007
      4755.46       1.0718378     0.037449925
      4760.22       1.0996974     0.037694006
      4764.97       1.0895224     0.037126575
      4769.74       1.0912714     0.036985841
      4774.51       1.0708951     0.036809904
      4779.29       1.0524710     0.036661985
      4784.07       1.0551628     0.036499220
      4788.85       1.0549064     0.036344409
      4793.64       1.0522860     0.036204064
      4798.43       1.0270007     0.036030674
      4803.23       1.0261957     0.035884001
      4808.03       1.0350421     0.035368063
      4812.84       1.0581954     0.035569273
      4817.66       1.0533833     0.035050836
      4822.48       1.0444995     0.035259414
      4827.30       1.0295537     0.035115980
      4832.12       1.0226178     0.034611767
      4836.96       1.0109920     0.034803689
      4841.79      0.99802061     0.034297971
      4846.63      0.98805822     0.034496017
      4851.48      0.97984501     0.033988703
      4856.33      0.97719503     0.033867815
      4861.19      0.98264793     0.033682614
      4866.05      0.97644121     0.033557541
      4870.92      0.97485947     0.033742471
      4875.79      0.98460701     0.033250462
      4880.66      0.97853055     0.033438682
      4885.55      0.98260741     0.032947172
      4890.43      0.96855620     0.032830832
      4895.32      0.97560698     0.032645945
      4900.22      0.96951914     0.032527310
      4905.12      0.99220083     0.032347221
      4910.02       1.0011816     0.032226167
      4914.94       1.0013928     0.032050138
      4919.85       1.0124103     0.031927637
      4924.77       1.0063125     0.031452101
      4929.70       1.0023802     0.031631597
      4934.62      0.98616787     0.031162051
      4939.56      0.97128666     0.031337141
      4944.50      0.98205575     0.030874387
      4949.44      0.99034640     0.031045344
      4954.39      0.99598346     0.030587465
      4959.35      0.99598960     0.030756012
      4964.31      0.99045270     0.030302506
      4969.27      0.99172407     0.030177050
      4974.24      0.99261150     0.030018476
      4979.22      0.98682279     0.029892781
      4984.20      0.97651230     0.029736247
      4989.18      0.97894645     0.029610692
      4994.17      0.96449139     0.029454863
      4999.16      0.97829431     0.029330861
      5004.16      0.97335109     0.029175319
      5009.17      0.97830604     0.029052188
      5014.18      0.98113090     0.028897142
      5019.19      0.95089297     0.028474920
      5024.21      0.93845048     0.028620294
      5029.23      0.92629700     0.028202546
      5034.26      0.92741517     0.028345416
      5039.30      0.94101891     0.027931940
      5044.34      0.95755255     0.028071763
      5049.39      0.96457070     0.027663572
      5054.43      0.98743349     0.027799657
      5059.49       1.0022759     0.027397027
      5064.55       1.0151190     0.027529470
      5069.61       1.0238550     0.027132383
      5074.68       1.0241073     0.026976143
      5079.76       1.0261421     0.026869758
      5084.84       1.0366099     0.026712484
      5089.92       1.0575860     0.026609453
      5095.01       1.0590810     0.026451108
      5100.11       1.0700814     0.026351940
      5105.21       1.0896319     0.026191823
      5110.31       1.1100854     0.025806446
      5115.42       1.1233523     0.025935212
      5120.54       1.1428832     0.025784615
      5125.66       1.1647909     0.025680816
      5130.79       1.1875592     0.025527968
      5135.92       1.2108205     0.025154801
      5141.05       1.2279602     0.025274267
      5146.20       1.2350644     0.024901521
      5151.34       1.2545759     0.025023815
      5156.49       1.2779691     0.024650859
      5161.65       1.2893586     0.024513670
      5166.81       1.2932730     0.024402844
      5171.98       1.2983325     0.024263197
      5177.15       1.3169373     0.024379175
      5182.33       1.3587493     0.024016007
      5187.51       1.3765265     0.023881867
      5192.70       1.3965468     0.023771832
      5197.89       1.4243545     0.023634771
      5203.09       1.4343889     0.023292527
      5208.29       1.4483515     0.023391430
      5213.50       1.4464218     0.023259071
      5218.72       1.4413785     0.022916703
      5223.93       1.4370814     0.023016431
      5229.16       1.4222938     0.022683233
      5234.39       1.4205230     0.022777183
      5239.62       1.4228706     0.022645077
      5244.86       1.4392936     0.022313444
      5250.11       1.4517223     0.022407388
      5255.36       1.4751546     0.022085657
      5260.61       1.4843363     0.021948577
      5265.87       1.4961591     0.022041920
      5271.14       1.5236792     0.021722237
      5276.41       1.5402971     0.021588075
      5281.69       1.5690248     0.021500656
      5286.97       1.5951766     0.021363216
      5292.26       1.6155485     0.021231679
      5297.55       1.6241817     0.021143718
      5302.85       1.6432856     0.021008734
      5308.15       1.6584608     0.020879118
      5313.46       1.6842977     0.020791485
      5318.77       1.7072824     0.020658332
      5324.09       1.7004318     0.020353036
      5329.42       1.6907744     0.020230983
      5334.75       1.7048476     0.020311962
      5340.08       1.7174645     0.020011414
      5345.42       1.7346382     0.019890039
      5350.77       1.7436164     0.019970049
      5356.12       1.7448640     0.019673326
      5361.48       1.7461279     0.019553055
      5366.83       1.7567561     0.019632056
      5372.20       1.7763303     0.019339468
      5377.58       1.7717772     0.019219574
      5382.95       1.7856187     0.019103331
      5388.34       1.8048154     0.019008933
      5393.72       1.8385904     0.018889564
      5399.12       1.8758091     0.018773851
      5404.52       1.9169808     0.018498310
      5409.92       1.9584713     0.018563872
      5415.33       2.0062285     0.018448261
      5420.75       2.0457090     0.018180014
      5426.17       2.0759152     0.018242708
      5431.60       2.1207583     0.018126978
      5437.03       2.1728846     0.018014367
      5442.47       2.2085078     0.017748662
      5447.91       2.2396472     0.017810066
      5453.36       2.2565859     0.017697055
      5458.81       2.2437387     0.017439783
      5464.27       2.2364950     0.017324384
      5469.73       2.2316016     0.017212121
      5475.20       2.2122029     0.017135981
      5480.68       2.1770302     0.017020823
      5486.16       2.1394686     0.016907804
      5491.65       2.1078570     0.016797431
      5497.14       2.0781898     0.016722589
      5502.64       2.0350728     0.016609158
      5508.14       1.9975631     0.016498514
      5513.65       1.9485165     0.016389866
      5519.16       1.9080394     0.016149363
      5524.68       1.8895999     0.016205277
      5530.20       1.8817127     0.016096029
      5535.73       1.8745342     0.015857560
      5541.27       1.8757247     0.015753117
      5546.81       1.8734177     0.015650577
      5552.36       1.8780168     0.015701184
      5557.91       1.8863929     0.015467306
      5563.47       1.8853308     0.015363724
      5569.04       1.9114099     0.015262213
      5574.60       1.9303308     0.015161925
      5580.18       1.9497792     0.015208795
      5585.76       1.9776598     0.014981919
      5591.35       1.9997645     0.014880968
      5596.94       2.0159298     0.014781391
      5602.53       2.0167711     0.014683405
      5608.14       1.9962801     0.014466335
      5613.75       1.9828408     0.014507215
      5619.36       1.9574930     0.014408629
      5624.98       1.9361820     0.014311029
      5630.60       1.9106683     0.014215072
      5636.23       1.8803377     0.014005258
      5641.87       1.8484719     0.013908005
      5647.51       1.8145730     0.013811969
      5653.16       1.7854609     0.013851318
      5658.82       1.7538244     0.013756726
      5664.47       1.7341969     0.013555802
      5670.14       1.7145923     0.013460482
      5675.81       1.6968614     0.013365908
      5681.48       1.6892000     0.013272825
      5687.17       1.6954165     0.013180418
      5692.85       1.6953350     0.013118455
      5698.55       1.6981000     0.013024661
      5704.25       1.6966698     0.012931828
      5709.95       1.6929370     0.012840025
      5715.66       1.7015251     0.012749224
      5721.38       1.7192208     0.012659402
      5727.10       1.7337129     0.012471867
      5732.83       1.7265926     0.012384198
      5738.56       1.7333344     0.012297217
      5744.30       1.7409962     0.012330906
      5750.04       1.7359249     0.012242164
      5755.79       1.7247872     0.012154312
      5761.55       1.7430977     0.011973270
      5767.31       1.7686474     0.011887605
      5773.08       1.7839140     0.011802546
      5778.85       1.7989468     0.011718243
      5784.63       1.8185592     0.011634660
      5790.41       1.8408745     0.011551633
      5796.21       1.8500042     0.011469301
      5802.00       1.8449789     0.011387766
      5807.81       1.8450843     0.011219392
      5813.61       1.8357098     0.011139594
      5819.43       1.8171506     0.011060257
      5825.25       1.8163946     0.011084980
      5831.07       1.7970837     0.011005631
      5836.90       1.8020270     0.010928117
      5842.74       1.7968299     0.010853975
      5848.58       1.8097668     0.010783913
      5854.43       1.8018366     0.010715774
      5860.29       1.7915416     0.010567578
      5866.15       1.7761401     0.010500064
      5872.01       1.7889964     0.010434432
      5877.89       1.7935194     0.010366890
      5883.76       1.7839413     0.010295407
      5889.65       1.7782646     0.010222137
      5895.54       1.7732170     0.010148150
      5901.43       1.7726871     0.010073110
      5907.34       1.7548431    0.0099970199
      5913.24       1.7374330    0.0099202240
      5919.16       1.7322504    0.0098443449
      5925.08       1.7142204    0.0097693947
      5931.00       1.7054235    0.0096946339
      5936.93       1.7034054    0.0095479013
      5942.87       1.7075366    0.0094724460
      5948.81       1.7298307    0.0093964186
      5954.76       1.7387663    0.0093209901
      5960.72       1.7424744    0.0092461377
      5966.68       1.7469747    0.0091707927
      5972.64       1.7523107    0.0090950412
      5978.62       1.7537013    0.0090211940
      5984.60       1.7591068    0.0089496558
      5990.58       1.7573871    0.0088785379
      5996.57       1.7463457    0.0088069508
      6002.57       1.7447948    0.0087368573
      6008.57       1.7389623    0.0086685522
      6014.58       1.7366083    0.0086013960
      6020.60       1.7207936    0.0085349352
      6026.62       1.7095780    0.0084694794
      6032.65       1.7137832    0.0084048298
      6038.68       1.7088455    0.0083407052
      6044.72       1.7114561    0.0082004414
      6050.76       1.7050767    0.0081378338
      6056.81       1.7040830    0.0080757350
      6062.87       1.7056383    0.0080142419
      6068.93       1.6970134    0.0079531421
      6075.00       1.6944146    0.0078925050
      6081.08       1.7062562    0.0078324056
      6087.16       1.7112858    0.0077726453
      6093.25       1.7111901    0.0077134079
      6099.34       1.7094826    0.0076545866
      6105.44       1.7064050    0.0075962975
      6111.54       1.7003049    0.0075383730
      6117.66       1.7146935    0.0074809868
      6123.78       1.7171179    0.0073539577
      6129.90       1.7161964    0.0072974338
      6136.03       1.7159861    0.0072412358
      6142.17       1.7214491    0.0071856269
      6148.31       1.7300897    0.0071303848
      6154.46       1.7311844    0.0070756617
      6160.61       1.7304084    0.0070213148
