# starting wavelength =        3293.0600
# ending wavelength =        10378.100
# O2 telluric scale =        0
# O2 telluric shift =        0
# H2O telluric scale =        0
# H2O telluric shift =        0
      3295.18      0.15629692     0.010643874
      3298.47      0.15698203    0.0095240593
      3301.77      0.15519992    0.0081750464
      3305.07      0.15689811    0.0068606971
      3308.38      0.15770973    0.0060926731
      3311.69      0.15793841    0.0055011416
      3315.00      0.15723428    0.0051667267
      3318.31      0.15563329    0.0047786037
      3321.63      0.15578756    0.0043948719
      3324.95      0.15604580    0.0041750481
      3328.28      0.15432356    0.0039968076
      3331.61      0.15469065    0.0038958596
      3334.94      0.15309238    0.0037673750
      3338.27      0.15329909    0.0036586733
      3341.61      0.15344345    0.0035719862
      3344.95      0.15500613    0.0034945466
      3348.30      0.15515752    0.0034535790
      3351.65      0.15316893    0.0033895015
      3355.00      0.15424900    0.0033313204
      3358.35      0.15509861    0.0033289498
      3361.71      0.15657971    0.0033285789
      3365.07      0.15558809    0.0033285785
      3368.44      0.15564229    0.0033263317
      3371.81      0.15583343    0.0033258465
      3375.18      0.15909029    0.0033257703
      3378.56      0.15976759    0.0033505733
      3381.94      0.16131924    0.0033230985
      3385.32      0.16056575    0.0033491012
      3388.70      0.16226833    0.0033479160
      3392.09      0.16362711    0.0033471687
      3395.48      0.16381754    0.0033465562
      3398.88      0.16445189    0.0033453010
      3402.28      0.16744140    0.0033443813
      3405.68      0.17038236    0.0033701837
      3409.09      0.17346126    0.0033426615
      3412.49      0.17660782    0.0033416054
      3415.91      0.17992458    0.0033671943
      3419.32      0.18261702    0.0033669235
      3422.74      0.18587785    0.0033388909
      3426.17      0.19083912    0.0033642414
      3429.59      0.19123248    0.0033637328
      3433.02      0.19552566    0.0033636221
      3436.45      0.19823223    0.0033613378
      3439.89      0.20161235    0.0033606238
      3443.33      0.20566859    0.0033602455
      3446.78      0.20947557    0.0033865839
      3450.22      0.21359778    0.0033856229
      3453.67      0.21759009    0.0033569532
      3457.13      0.22223389    0.0033838817
      3460.58      0.22733800    0.0033826484
      3464.04      0.23101167    0.0033817797
      3467.51      0.23766632    0.0033813519
      3470.98      0.24312587    0.0033798723
      3474.45      0.25241704    0.0033787077
      3477.92      0.25959779    0.0034052942
      3481.40      0.26606224    0.0034047857
      3484.88      0.27422348    0.0033758699
      3488.37      0.28281025    0.0034021146
      3491.86      0.29178785    0.0034012725
      3495.35      0.30163162    0.0034007814
      3498.84      0.31147034    0.0034005767
      3502.34      0.32091306    0.0033980247
      3505.84      0.33300344    0.0033971604
      3509.35      0.34306043    0.0033966277
      3512.86      0.35333307    0.0034244318
      3516.37      0.36533133    0.0034231982
      3519.89      0.37940172    0.0034222999
      3523.41      0.38954881    0.0034218759
      3526.93      0.39836337    0.0034203124
      3530.46      0.40786387    0.0034190231
      3533.99      0.41690208    0.0034179979
      3537.53      0.42646616    0.0034459399
      3541.06      0.43482146    0.0034161971
      3544.60      0.44383053    0.0034147987
      3548.15      0.45315936    0.0034422790
      3551.70      0.46063299    0.0034414090
      3555.25      0.46766189    0.0034407834
      3558.80      0.47415369    0.0034404565
      3562.36      0.48236497    0.0034686699
      3565.92      0.48885935    0.0034368610
      3569.49      0.49531025    0.0034360669
      3573.06      0.50065208    0.0034354884
      3576.64      0.50757550    0.0034642779
      3580.21      0.51491149    0.0034630612
      3583.79      0.52223875    0.0034620077
      3587.38      0.52918801    0.0034617140
      3590.96      0.53297630    0.0034600220
      3594.55      0.53407988    0.0034585414
      3598.15      0.53615267    0.0034572810
      3601.75      0.53965775    0.0034862551
      3605.35      0.54161399    0.0034855046
      3608.96      0.54454194    0.0034848853
      3612.56      0.54748278    0.0034845183
      3616.18      0.55035446    0.0034814295
      3619.79      0.55308954    0.0034803981
      3623.41      0.55529347    0.0034794880
      3627.04      0.55817786    0.0034788103
      3630.66      0.56240756    0.0035092256
      3634.29      0.56298261    0.0035077732
      3637.93      0.56774742    0.0035065606
      3641.57      0.57384794    0.0035055792
      3645.21      0.58033565    0.0035050867
      3648.86      0.58890226    0.0035033272
      3652.50      0.59866221    0.0035017925
      3656.16      0.60928349    0.0035004793
      3659.81      0.61739318    0.0035307445
      3663.47      0.62852709    0.0035297050
      3667.14      0.63946260    0.0035288315
      3670.80      0.65170836    0.0035281455
      3674.48      0.66289543    0.0035276022
      3678.15      0.67172315    0.0035583714
      3681.83      0.68149691    0.0035571117
      3685.51      0.68593488    0.0035220187
      3689.20      0.69117984    0.0035210673
      3692.88      0.69434698    0.0035538760
      3696.58      0.69094086    0.0035522271
      3700.27      0.68587640    0.0035507551
      3703.98      0.68434208    0.0035493429
      3707.68      0.68214754    0.0035480965
      3711.39      0.67618823    0.0035800373
      3715.10      0.67090800    0.0035790732
      3718.81      0.66256177    0.0035782217
      3722.53      0.65667021    0.0035775310
      3726.26      0.64962416    0.0036104034
      3729.98      0.64191439    0.0036089338
      3733.71      0.63469282    0.0036076303
      3737.45      0.62703773    0.0035706145
      3741.18      0.62147755    0.0035694737
      3744.93      0.61415678    0.0036044200
      3748.67      0.60929438    0.0036026469
      3752.42      0.60206753    0.0036009638
      3756.17      0.59613374    0.0035993695
      3759.93      0.59155600    0.0035979149
      3763.69      0.58736340    0.0035966041
      3767.45      0.58331284    0.0036300378
      3771.22      0.58057704    0.0036288603
      3774.99      0.57753616    0.0036278171
      3778.77      0.57588094    0.0036267585
      3782.54      0.57602104    0.0036258266
      3786.33      0.57529428    0.0036609574
      3790.11      0.57588353    0.0036593499
      3793.90      0.57765103    0.0036577894
      3797.70      0.58326740    0.0036563552
      3801.50      0.59037293    0.0036550540
      3805.30      0.59767082    0.0036537008
      3809.10      0.60545344    0.0036892099
      3812.91      0.61603479    0.0036880003
      3816.73      0.62795155    0.0036868729
      3820.54      0.64218857    0.0036857571
      3824.36      0.65712862    0.0036847674
      3828.19      0.67430956    0.0036837734
      3832.02      0.69023863    0.0037198945
      3835.85      0.70824288    0.0037183045
      3839.68      0.72529098    0.0037167560
      3843.52      0.74586980    0.0037152909
      3847.37      0.76262278    0.0037138590
      3851.22      0.78092790    0.0037124268
      3855.07      0.79783064    0.0037498974
      3858.92      0.81310620    0.0037485680
      3862.78      0.83130087    0.0037472574
      3866.64      0.85219669    0.0037460150
      3870.51      0.86881730    0.0037447730
      3874.38      0.88526946    0.0037435118
      3878.26      0.89862211    0.0037423129
      3882.13      0.91330382    0.0037815010
      3886.02      0.92494414    0.0037796856
      3889.90      0.93410299    0.0037779466
      3893.79      0.94203402    0.0037762783
      3897.69      0.94921558    0.0037746217
      3901.59      0.95638475    0.0037729546
      3905.49      0.96413417    0.0037713429
      3909.39      0.97328817    0.0038108778
      3913.30      0.98084242    0.0038092249
      3917.22      0.99120770    0.0038076381
      3921.13      0.99791702    0.0038061215
      3925.06       1.0038047    0.0038044527
      3928.98       1.0113384    0.0038028316
      3932.91       1.0176567    0.0038012972
      3936.84       1.0243197    0.0038452820
      3940.78       1.0327132    0.0038875573
      3944.72       1.0435482    0.0038858714
      3948.67       1.0561034    0.0038842950
      3952.61       1.0666043    0.0038826289
      3956.57       1.0753893    0.0038810472
      3960.52       1.0833653    0.0038793827
      3964.48       1.0901015    0.0038776451
      3968.45       1.0946346    0.0038759864
      3972.42       1.0997495    0.0038742870
      3976.39       1.1029233    0.0038725327
      3980.37       1.1058348    0.0039191017
      3984.35       1.1074846    0.0039172499
      3988.33       1.1090933    0.0039630131
      3992.32       1.1098316    0.0039612176
      3996.31       1.1085041    0.0039593416
      4000.31       1.1012275    0.0039574947
      4004.31       1.0971496    0.0039555882
      4008.31       1.0921391    0.0039536468
      4012.32       1.0853587    0.0039517484
      4016.33       1.0804221    0.0039498387
      4020.35       1.0746559    0.0039478477
      4024.37       1.0686471    0.0039458945
      4028.40       1.0630416    0.0039438635
      4032.42       1.0565799    0.0039418099
      4036.46       1.0490387    0.0039397927
      4040.50       1.0439769    0.0039377484
      4044.54       1.0408854    0.0039358141
      4048.58       1.0387679    0.0039338152
      4052.63       1.0384450    0.0039317313
      4056.68       1.0359511    0.0039296419
      4060.74       1.0331875    0.0039275987
      4064.80       1.0313190    0.0038792013
      4068.86       1.0297467    0.0038772308
      4072.93       1.0271298    0.0038752075
      4077.01       1.0262049    0.0038731744
      4081.08       1.0289382    0.0038712391
      4085.17       1.0304610    0.0038692890
      4089.25       1.0324818    0.0038672992
      4093.34       1.0363624    0.0038654405
      4097.43       1.0409111    0.0038635503
      4101.53       1.0459311    0.0038617316
      4105.63       1.0513663    0.0038599176
      4109.74       1.0567804    0.0038581304
      4113.85       1.0623421    0.0038563341
      4117.96       1.0697290    0.0038547009
      4122.08       1.0746462    0.0038055379
      4126.20       1.0799301    0.0038031511
      4130.33       1.0856582    0.0038008834
      4134.46       1.0896649    0.0037986183
      4138.59       1.0939517    0.0037964340
      4142.73       1.0961783    0.0037942447
      4146.88       1.0991020    0.0038399685
      4151.02       1.1021263    0.0038378361
      4155.18       1.1067800    0.0038358861
      4159.33       1.1118737    0.0038339583
      4163.49       1.1164006    0.0038321521
      4167.65       1.1223054    0.0037850284
      4171.82       1.1294503    0.0037823524
      4175.99       1.1374181    0.0037797714
      4180.17       1.1448949    0.0037772356
      4184.35       1.1545057    0.0037748890
      4188.54       1.1637475    0.0037725759
      4192.72       1.1721095    0.0037703260
      4196.92       1.1806927    0.0037681580
      4201.11       1.1890863    0.0037235924
      4205.31       1.1984353    0.0037680075
      4209.52       1.2096457    0.0037649870
      4213.73       1.2178108    0.0037621197
      4217.94       1.2229457    0.0037593591
      4222.16       1.2268884    0.0037568188
      4226.38       1.2323988    0.0037542748
      4230.61       1.2383596    0.0037519883
      4234.84       1.2436228    0.0037075017
      4239.08       1.2489183    0.0037054460
      4243.32       1.2542649    0.0037036155
      4247.56       1.2614139    0.0037020218
      4251.81       1.2689272    0.0037431325
      4256.06       1.2783909    0.0037403139
      4260.32       1.2878955    0.0037377745
      4264.58       1.3001787    0.0036931236
      4268.84       1.3087301    0.0036909475
      4273.11       1.3190479    0.0036890559
      4277.38       1.3287114    0.0036872381
      4281.66       1.3397690    0.0036856943
      4285.94       1.3509246    0.0037257108
      4290.23       1.3586536    0.0036808542
      4294.52       1.3632411    0.0036784907
      4298.81       1.3679099    0.0036764137
      4303.11       1.3726381    0.0036744536
      4307.42       1.3789975    0.0036728174
      4311.72       1.3808638    0.0036279033
      4316.04       1.3865896    0.0036250813
      4320.35       1.3891980    0.0036659847
      4324.67       1.3924343    0.0036636731
      4329.00       1.3949451    0.0036615497
      4333.33       1.3982251    0.0036598533
      4337.66       1.3995472    0.0036151907
      4342.00       1.4018294    0.0036123083
      4346.34       1.4053868    0.0036097973
      4350.69       1.4082981    0.0036507503
      4355.04       1.4148358    0.0036487765
      4359.39       1.4242318    0.0036051860
      4363.75       1.4351295    0.0036020958
      4368.12       1.4462889    0.0035993200
      4372.48       1.4611519    0.0035969585
      4376.86       1.4757971    0.0036377857
      4381.23       1.4888151    0.0035947664
      4385.61       1.5047513    0.0035915604
      4390.00       1.5204073    0.0035885874
      4394.39       1.5345131    0.0035860334
      4398.79       1.5540741    0.0035451562
      4403.18       1.5687485    0.0035838593
      4407.59       1.5844455    0.0035805218
      4412.00       1.6007442    0.0035776594
      4416.41       1.6186051    0.0035751301
      4420.82       1.6358960    0.0035344246
      4425.25       1.6564908    0.0035726353
      4429.67       1.6792333    0.0035692863
      4434.10       1.7035853    0.0035664618
      4438.54       1.7288554    0.0035255358
      4442.97       1.7552382    0.0035236536
      4447.42       1.7823108    0.0035608675
      4451.86       1.8102145    0.0035577786
      4456.32       1.8388818    0.0035167211
      4460.77       1.8630203    0.0035147222
      4465.24       1.8866592    0.0035131129
      4469.70       1.9115976    0.0035489836
      4474.17       1.9323553    0.0035078489
      4478.65       1.9536626    0.0035056570
      4483.12       1.9731298    0.0035040645
      4487.61       1.9911340    0.0035017063
      4492.09       2.0082701    0.0034988971
      4496.59       2.0267776    0.0034967112
      4501.08       2.0447200    0.0034951595
      4505.58       2.0624970    0.0034532725
      4510.09       2.0802177    0.0034898931
      4514.60       2.0961003    0.0034877475
      4519.12       2.1113269    0.0034861946
      4523.63       2.1249106    0.0034442564
      4528.16       2.1364153    0.0034808111
      4532.69       2.1491889    0.0034787704
      4537.22       2.1618231    0.0034381668
      4541.76       2.1701405    0.0034350043
      4546.30       2.1781904    0.0034716790
      4550.85       2.1852651    0.0034321883
      4555.40       2.1907593    0.0034286089
      4559.95       2.1964785    0.0034257618
      4564.51       2.1994892    0.0034625815
      4569.08       2.2006041    0.0034223500
      4573.65       2.2016035    0.0034191172
      4578.22       2.2010606    0.0034165864
      4582.80       2.2012231    0.0034161118
      4587.38       2.1992465    0.0034124647
      4591.97       2.1947401    0.0034096625
      4596.56       2.1884206    0.0034098676
      4601.16       2.1808516    0.0034059523
      4605.76       2.1711088    0.0034028086
      4610.37       2.1588516    0.0033651436
      4614.98       2.1444507    0.0033992812
      4619.59       2.1291919    0.0033959366
      4624.21       2.1111206    0.0033581758
      4628.84       2.0914079    0.0033925867
      4633.47       2.0705931    0.0033890837
      4638.10       2.0471450    0.0033512670
      4642.74       2.0228260    0.0033857256
      4647.38       1.9987007    0.0033820957
      4652.03       1.9725600    0.0033442513
      4656.68       1.9449482    0.0033424227
      4661.34       1.9171047    0.0033749942
      4666.00       1.8889912    0.0033371691
      4670.67       1.8621240    0.0033353880
      4675.33       1.8339023    0.0033328017
      4680.01       1.8066279    0.0033301216
      4684.69       1.7825045    0.0033284205
      4689.38       1.7603364    0.0033256721
      4694.07       1.7412225    0.0033231036
      4698.76       1.7248307    0.0033215505
      4703.46       1.7128388    0.0033184416
      4708.16       1.7015844    0.0033160464
      4712.87       1.6934610    0.0032787124
      4717.58       1.6865863    0.0033112149
      4722.30       1.6775686    0.0033090411
      4727.03       1.6665874    0.0032713250
      4731.75       1.6580488    0.0033039891
      4736.48       1.6501690    0.0033021078
      4741.22       1.6396749    0.0032638993
      4745.96       1.6279358    0.0032968338
      4750.71       1.6182000    0.0032598905
      4755.46       1.6122610    0.0032566250
      4760.22       1.6058276    0.0032897993
      4764.97       1.6036437    0.0032521974
      4769.74       1.6027528    0.0032493777
      4774.51       1.6064363    0.0032481940
      4779.29       1.6112375    0.0032446610
      4784.07       1.6224071    0.0032445623
      4788.85       1.6312443    0.0032403371
      4793.64       1.6408986    0.0032373676
      4798.43       1.6525545    0.0032361940
      4803.23       1.6616414    0.0032325754
      4808.03       1.6678521    0.0031979672
      4812.84       1.6707850    0.0032280899
      4817.66       1.6696131    0.0031929250
      4822.48       1.6702861    0.0032238790
      4827.30       1.6700229    0.0032203619
      4832.12       1.6685487    0.0031860374
      4836.96       1.6685865    0.0032156767
      4841.79       1.6716317    0.0031808839
      4846.63       1.6761126    0.0032112463
      4851.48       1.6829631    0.0031759742
      4856.33       1.6908252    0.0031742252
      4861.19       1.7007718    0.0031711796
      4866.05       1.7096027    0.0031689807
      4870.92       1.7191735    0.0031984664
      4875.79       1.7280322    0.0031638301
      4880.66       1.7351237    0.0031938010
      4885.55       1.7419769    0.0031588728
      4890.43       1.7482831    0.0031573178
      4895.32       1.7533036    0.0031539328
      4900.22       1.7549137    0.0031520818
      4905.12       1.7537581    0.0031490546
      4910.02       1.7544996    0.0031468948
      4914.94       1.7542748    0.0031441517
      4919.85       1.7549548    0.0031417811
      4924.77       1.7565340    0.0031069653
      4929.70       1.7574633    0.0031367225
      4934.62       1.7603246    0.0031021621
      4939.56       1.7646128    0.0031316342
      4944.50       1.7680499    0.0030974099
      4949.44       1.7707385    0.0031266226
      4954.39       1.7725375    0.0030925517
      4959.35       1.7734764    0.0031216752
      4964.31       1.7736701    0.0030877120
      4969.27       1.7729126    0.0030845472
      4974.24       1.7719873    0.0030827815
      4979.22       1.7729510    0.0030795042
      4984.20       1.7716610    0.0030778463
      4989.18       1.7724781    0.0030744999
      4994.17       1.7724170    0.0030728087
      4999.16       1.7754062    0.0030695395
      5004.16       1.7800406    0.0030677774
      5009.17       1.7864473    0.0030645144
      5014.18       1.7933799    0.0030626960
      5019.19       1.8023995    0.0030299941
      5024.21       1.8111342    0.0030575674
      5029.23       1.8214718    0.0030250073
      5034.26       1.8341334    0.0030524495
      5039.30       1.8461429    0.0030200144
      5044.34       1.8581542    0.0030472715
      5049.39       1.8716583    0.0030150708
      5054.43       1.8847409    0.0030420625
      5059.49       1.8958016    0.0030101396
