# starting wavelength =        3461.3280
# ending wavelength =        10078.800
# O2 telluric scale =        0
# O2 telluric shift =        0
# H2O telluric scale =        0
# H2O telluric shift =        0
      3464.04      0.16579116    0.0037616402
      3467.51      0.17372384    0.0037541746
      3470.98      0.17381337    0.0037770409
      3474.45      0.17187023    0.0037689958
      3477.92      0.17236356    0.0037337222
      3481.40      0.17155008    0.0037572057
      3484.88      0.17005982    0.0037489033
      3488.37      0.16566477    0.0037409148
      3491.86      0.16690526    0.0037332374
      3495.35      0.17325993    0.0037560273
      3498.84      0.17804905    0.0037209800
      3502.34      0.18221591    0.0037130184
      3505.84      0.18201561    0.0037353324
      3509.35      0.19088220    0.0037279590
      3512.86      0.19410023    0.0037208692
      3516.37      0.19819513    0.0037150570
      3519.89      0.20979124    0.0037073770
      3523.41      0.21684811    0.0037000014
      3526.93      0.21981184    0.0037234862
      3530.46      0.22352837    0.0037154359
      3533.99      0.22850353    0.0037076939
      3537.53      0.23193753    0.0036722096
      3541.06      0.23571566    0.0036957537
      3544.60      0.23907722    0.0036876613
      3548.15      0.24084345    0.0036798614
      3551.70      0.24393151    0.0037028355
      3555.25      0.24768483    0.0036954695
      3558.80      0.25157838    0.0036601049
      3562.36      0.25510809    0.0036522399
      3565.92      0.25532425    0.0036748973
      3569.49      0.25837424    0.0036674274
      3573.06      0.26040085    0.0036602252
      3576.64      0.26179576    0.0036532319
      3580.21      0.26034832    0.0036759994
      3583.79      0.26394350    0.0036395901
      3587.38      0.26240737    0.0036322320
      3590.96      0.26391137    0.0036564109
      3594.55      0.26674556    0.0036483642
      3598.15      0.26959506    0.0036405769
      3601.75      0.27159131    0.0036329993
      3605.35      0.27579173    0.0036567048
      3608.96      0.27912107    0.0036212029
      3612.56      0.28259484    0.0036132162
      3616.18      0.28650906    0.0036054601
      3619.79      0.28634345    0.0036287245
      3623.41      0.28909362    0.0036213230
      3627.04      0.29380849    0.0036140910
      3630.66      0.29781130    0.0036070317
      3634.29      0.30052989    0.0036307046
      3637.93      0.30423540    0.0036229896
      3641.57      0.30966988    0.0035861202
      3645.21      0.31289027    0.0035788213
      3648.86      0.31690485    0.0036035884
      3652.50      0.32230882    0.0035956431
      3656.16      0.32807544    0.0035878997
      3659.81      0.33558983    0.0035803122
      3663.47      0.34251072    0.0036044669
      3667.14      0.35276262    0.0035971670
      3670.80      0.36196496    0.0035899629
      3674.48      0.36811959    0.0035829428
      3678.15      0.37258935    0.0035768206
      3681.83      0.37581628    0.0035692446
      3685.51      0.37924057    0.0035617514
      3689.20      0.38337301    0.0035544310
      3692.88      0.38408222    0.0035472809
      3696.58      0.38538371    0.0035724412
      3700.27      0.38663973    0.0035646032
      3703.98      0.38816234    0.0035569413
      3707.68      0.38914876    0.0035493402
      3711.39      0.38938381    0.0035742779
      3715.10      0.38845619    0.0035669380
      3718.81      0.38823248    0.0035597709
      3722.53      0.38627539    0.0035526427
      3726.26      0.38494435    0.0035456631
      3729.98      0.38351514    0.0035391446
      3733.71      0.38058940    0.0035316504
      3737.45      0.37797134    0.0035241845
      3741.18      0.37315126    0.0035168659
      3744.93      0.37141556    0.0035096303
      3748.67      0.36915280    0.0035359768
      3752.42      0.36738070    0.0035281363
      3756.17      0.36485215    0.0035204475
      3759.93      0.36373702    0.0035128308
      3763.69      0.36208146    0.0035052951
      3767.45      0.36119363    0.0035308720
      3771.22      0.36084468    0.0035234790
      3774.99      0.36180116    0.0035161563
      3778.77      0.36130856    0.0035089653
      3782.54      0.36156842    0.0035018277
      3786.33      0.36181854    0.0035285136
      3790.11      0.36356224    0.0035207854
      3793.90      0.36458048    0.0035131288
      3797.70      0.36682639    0.0035055768
      3801.50      0.36980074    0.0034980743
      3805.30      0.37573548    0.0034906946
      3809.10      0.38236767    0.0035173881
      3812.91      0.38772406    0.0035100838
      3816.73      0.39561995    0.0035027477
      3820.54      0.40377868    0.0034955067
      3824.36      0.41287714    0.0034883631
      3828.19      0.42238065    0.0034812602
      3832.02      0.43287327    0.0035081703
      3835.85      0.44335557    0.0035005416
      3839.68      0.45596576    0.0034930155
      3843.52      0.46878876    0.0034854677
      3847.37      0.48319421    0.0034780149
      3851.22      0.49701612    0.0034705898
      3855.07      0.50968908    0.0034982718
      3858.92      0.52302985    0.0034908923
      3862.78      0.53721981    0.0034836006
      3866.64      0.55114523    0.0034762528
      3870.51      0.56600226    0.0034689928
      3874.38      0.57979650    0.0034618092
      3878.26      0.59188945    0.0034909272
      3882.13      0.60318376    0.0034832059
      3886.02      0.61331754    0.0034755791
      3889.90      0.62272596    0.0034679668
      3893.79      0.63159517    0.0034603586
      3897.69      0.63929444    0.0034528334
      3901.59      0.64824249    0.0034453914
      3905.49      0.65606795    0.0034739648
      3909.39      0.66387909    0.0034664323
      3913.30      0.67194939    0.0034589815
      3917.22      0.67888068    0.0034515304
      3921.13      0.68524038    0.0034440607
      3925.06      0.69133876    0.0034366755
      3928.98      0.69638778    0.0034652446
      3932.91      0.70164369    0.0034577703
      3936.84      0.70556258    0.0034880179
      3940.78      0.71006986    0.0034805378
      3944.72      0.71363019    0.0034731074
      3948.67      0.71760894    0.0034655885
      3952.61      0.72203815    0.0034581167
      3956.57      0.72540147    0.0034506971
      3960.52      0.72818546    0.0034432552
      3964.48      0.73027682    0.0034357937
      3968.45      0.73130904    0.0034283798
      3972.42      0.73107514    0.0034614583
      3976.39      0.73093477    0.0034538554
      3980.37      0.73103915    0.0034828820
      3984.35      0.73104822    0.0034753257
      3988.33      0.73168749    0.0034677245
      3992.32      0.73205587    0.0034601837
      3996.31      0.73202860    0.0034527023
      4000.31      0.73070929    0.0034450836
      4004.31      0.72856331    0.0034375305
      4008.31      0.72481203    0.0034300386
      4012.32      0.72071974    0.0034647648
      4016.33      0.71583842    0.0034572250
      4020.35      0.71087783    0.0034877725
      4024.37      0.70531922    0.0034800901
      4028.40      0.70024679    0.0034723745
      4032.42      0.69611777    0.0034647515
      4036.46      0.69154429    0.0034569954
      4040.50      0.68745300    0.0034493256
      4044.54      0.68360302    0.0034417386
      4048.58      0.68068918    0.0034341332
      4052.63      0.67842467    0.0034682939
      4056.68      0.67667101    0.0034605705
      4060.74      0.67565344    0.0034528989
      4064.80      0.67510612    0.0034451805
      4068.86      0.67488347    0.0034375762
      4072.93      0.67466188    0.0034299482
      4077.01      0.67467638    0.0034223288
      4081.08      0.67516002    0.0034148154
      4085.17      0.67529091    0.0034073106
      4089.25      0.67565238    0.0033997854
      4093.34      0.67665828    0.0033923946
      4097.43      0.67780108    0.0033849986
      4101.53      0.67948030    0.0033776838
      4105.63      0.68144851    0.0033703870
      4109.74      0.68396864    0.0033631371
      4113.85      0.68615187    0.0033558920
      4117.96      0.68844973    0.0033488077
      4122.08      0.69109296    0.0032991150
      4126.20      0.69425159    0.0032914908
      4130.33      0.69758191    0.0032839871
      4134.46      0.70027803    0.0032765072
      4138.59      0.70272021    0.0032691731
      4142.73      0.70499932    0.0032617387
      4146.88      0.70721361    0.0032941291
      4151.02      0.70918948    0.0032867701
      4155.18      0.71173445    0.0032795872
      4159.33      0.71491311    0.0032724451
      4163.49      0.71811272    0.0032654249
      4167.65      0.72246749    0.0032185013
      4171.82      0.72683807    0.0032108488
      4175.99      0.73171899    0.0032032966
      4180.17      0.73717277    0.0031957989
      4184.35      0.74374955    0.0031884802
      4188.54      0.75102734    0.0031812139
      4192.72      0.75896148    0.0031740116
      4196.92      0.76681702    0.0031669021
      4201.11      0.77566666    0.0031229208
      4205.31      0.78479046    0.0031536049
      4209.52      0.79300174    0.0031458432
      4213.73      0.80043192    0.0031382295
      4217.94      0.80767532    0.0031307221
      4222.16      0.81427769    0.0031234176
      4226.38      0.82019417    0.0031161281
      4230.61      0.82510008    0.0031090589
      4234.84      0.82926410    0.0030658499
      4239.08      0.83343230    0.0030590832
      4243.32      0.83656870    0.0030525187
      4247.56      0.83993879    0.0030461662
      4251.81      0.84246733    0.0030736480
      4256.06      0.84579683    0.0030662726
      4260.32      0.84996946    0.0030591428
      4264.58      0.85507179    0.0030163748
      4268.84      0.85925124    0.0030096489
      4273.11      0.86345863    0.0030031582
      4277.38      0.86779667    0.0029967486
      4281.66      0.87258410    0.0029905812
      4285.94      0.87812513    0.0030168670
      4290.23      0.88369392    0.0029744326
      4294.52      0.88886283    0.0029676651
      4298.81      0.89431807    0.0029611369
      4303.11      0.89970271    0.0029547250
      4307.42      0.90441488    0.0029485889
      4311.72      0.90841893    0.0029065854
      4316.04      0.91146953    0.0028995955
      4320.35      0.91452229    0.0029263592
      4324.67      0.91729287    0.0029197594
      4329.00      0.92039724    0.0029133491
      4333.33      0.92363006    0.0029072496
      4337.66      0.92711106    0.0028659381
      4342.00      0.93138166    0.0028590153
      4346.34      0.93589647    0.0028524049
      4350.69      0.94031914    0.0028789474
      4355.04      0.94650919    0.0028727422
      4359.39      0.95466206    0.0028326840
      4363.75      0.96382315    0.0028256970
      4368.12      0.97415548    0.0028189725
      4372.48      0.98504183    0.0028125887
      4376.86      0.99702601    0.0028388073
      4381.23       1.0100701    0.0027995936
      4385.61       1.0226217    0.0027926115
      4390.00       1.0350699    0.0027858313
      4394.39       1.0470394    0.0027793923
      4398.79       1.0579038    0.0027422094
      4403.18       1.0698052    0.0027666142
      4407.59       1.0816557    0.0027596312
      4412.00       1.0940825    0.0027530308
      4416.41       1.1072876    0.0027467039
      4420.82       1.1215507    0.0027100250
      4425.25       1.1365365    0.0027338868
      4429.67       1.1531319    0.0027269909
      4434.10       1.1705799    0.0027205144
      4438.54       1.1891024    0.0026839652
      4442.97       1.2085168    0.0026782893
      4447.42       1.2290209    0.0027012346
      4451.86       1.2494974    0.0026946323
      4456.32       1.2711929    0.0026582848
      4460.77       1.2940518    0.0026525903
      4465.24       1.3175904    0.0026472055
      4469.70       1.3414934    0.0026689892
      4474.17       1.3655331    0.0026328753
      4478.65       1.3880992    0.0026271070
      4483.12       1.4099138    0.0026218040
      4487.61       1.4312861    0.0026138986
      4492.09       1.4521610    0.0026077250
      4496.59       1.4729234    0.0026020330
      4501.08       1.4931437    0.0025968272
      4505.58       1.5128839    0.0025607086
      4510.09       1.5317881    0.0025828501
      4514.60       1.5489876    0.0025772554
      4519.12       1.5648126    0.0025721172
      4523.63       1.5787301    0.0025362517
      4528.16       1.5909817    0.0025582279
      4532.69       1.6017311    0.0025527838
      4537.22       1.6108231    0.0025181186
      4541.76       1.6205090    0.0025119316
      4546.30       1.6301179    0.0025338831
      4550.85       1.6401831    0.0025002429
      4555.40       1.6489762    0.0024938104
      4559.95       1.6568760    0.0024879276
      4564.51       1.6635745    0.0025098700
      4569.08       1.6698326    0.0024759678
      4573.65       1.6745435    0.0024698623
      4578.22       1.6783442    0.0024642757
      4582.80       1.6816274    0.0024583175
      4587.38       1.6816601    0.0024519685
      4591.97       1.6795709    0.0024462426
      4596.56       1.6751674    0.0024408382
      4601.16       1.6689817    0.0024343539
      4605.76       1.6609793    0.0024284413
      4610.37       1.6504984    0.0023970362
      4614.98       1.6378125    0.0024168052
      4619.59       1.6236957    0.0024108064
      4624.21       1.6081794    0.0023795294
      4628.84       1.5916931    0.0023994185
      4633.47       1.5751375    0.0023933630
      4638.10       1.5579060    0.0023622400
      4642.74       1.5400216    0.0023820902
      4647.38       1.5225319    0.0023760022
      4652.03       1.5045120    0.0023450522
      4656.68       1.4866334    0.0023402938
      4661.34       1.4685146    0.0023587400
      4666.00       1.4501495    0.0023279935
      4670.67       1.4321567    0.0023233243
      4675.33       1.4129726    0.0023163999
      4680.01       1.3953321    0.0023111383
      4684.69       1.3786915    0.0023065714
      4689.38       1.3628998    0.0022996077
      4694.07       1.3496873    0.0022944750
      4698.76       1.3381668    0.0022900582
      4703.46       1.3284271    0.0022829194
      4708.16       1.3200856    0.0022779577
      4712.87       1.3139190    0.0022482210
      4717.58       1.3079047    0.0022664086
      4722.30       1.3021742    0.0022616493
      4727.03       1.2967980    0.0022318338
      4731.75       1.2920798    0.0022500715
      4736.48       1.2872836    0.0022455613
      4741.22       1.2819441    0.0022155924
      4745.96       1.2777031    0.0022339529
      4750.71       1.2732876    0.0022049706
      4755.46       1.2707418    0.0021996233
      4760.22       1.2687909    0.0022180876
      4764.97       1.2687471    0.0021888385
      4769.74       1.2702933    0.0021838433
      4774.51       1.2735145    0.0021784198
      4779.29       1.2782578    0.0021729829
      4784.07       1.2862361    0.0021683292
      4788.85       1.2939644    0.0021624663
      4793.64       1.3025696    0.0021574575
      4798.43       1.3133475    0.0021521513
      4803.23       1.3216856    0.0021467473
      4808.03       1.3284650    0.0021200658
      4812.84       1.3334423    0.0021363235
      4817.66       1.3350905    0.0021093905
      4822.48       1.3357894    0.0021261619
      4827.30       1.3354230    0.0021209108
      4832.12       1.3332419    0.0020946945
      4836.96       1.3313461    0.0021105557
      4841.79       1.3303017    0.0020841433
      4846.63       1.3300122    0.0021004462
      4851.48       1.3325234    0.0020738338
      4856.33       1.3358631    0.0020698725
      4861.19       1.3411126    0.0020636822
      4866.05       1.3463625    0.0020594515
      4870.92       1.3525970    0.0020751191
      4875.79       1.3587946    0.0020491883
      4880.66       1.3648526    0.0020651309
      4885.55       1.3699337    0.0020391256
      4890.43       1.3749754    0.0020353982
      4895.32       1.3796921    0.0020291535
      4900.22       1.3831622    0.0020252683
      4905.12       1.3856286    0.0020192999
      4910.02       1.3878391    0.0020152500
      4914.94       1.3893601    0.0020095121
      4919.85       1.3912145    0.0020053570
      4924.77       1.3930091    0.0019798809
      4929.70       1.3942621    0.0019955809
      4934.62       1.3955900    0.0019703736
      4939.56       1.3971154    0.0019858661
      4944.50       1.3983172    0.0019609775
      4949.44       1.3990620    0.0019762801
      4954.39       1.3979177    0.0019515920
      4959.35       1.3961945    0.0019668116
      4964.31       1.3926013    0.0019422948
      4969.27       1.3882272    0.0019378252
      4974.24       1.3818254    0.0019330159
      4979.22       1.3768782    0.0019285129
      4984.20       1.3708779    0.0019238141
      4989.18       1.3672838    0.0019192995
      4994.17       1.3642813    0.0019146253
      4999.16       1.3643012    0.0019101916
      5004.16       1.3661554    0.0019055162
      5009.17       1.3699345    0.0019011193
      5014.18       1.3759183    0.0018964534
      5019.19       1.3829756    0.0018733027
      5024.21       1.3909173    0.0018874371
      5029.23       1.4003293    0.0018644690
      5034.26       1.4109796    0.0018785048
      5039.30       1.4221884    0.0018557079
      5044.34       1.4338695    0.0018696113
      5049.39       1.4453862    0.0018470525
      5054.43       1.4570738    0.0018607752
      5059.49       1.4677100    0.0018384770
      5064.55       1.4777631    0.0018520249
      5069.61       1.4869447    0.0018299867
      5074.68       1.4951432    0.0018250369
      5079.76       1.5032302    0.0018215858
      5084.84       1.5112693    0.0018165483
      5089.92       1.5200792    0.0018133011
      5095.01       1.5290073    0.0018081552
      5100.11       1.5378344    0.0018051593
      5105.21       1.5457685    0.0017998684
      5110.31       1.5532519    0.0017781097
      5115.42       1.5605209    0.0017917134
      5120.54       1.5673388    0.0017870329
      5125.66       1.5760497    0.0017836671
      5130.79       1.5848673    0.0017788026
      5135.92       1.5959673    0.0017575907
      5141.05       1.6085148    0.0017707286
      5146.20       1.6232427    0.0017494247
      5151.34       1.6388067    0.0017628340
      5156.49       1.6564175    0.0017413954
      5161.65       1.6753719    0.0017374913
      5166.81       1.6944366    0.0017335019
      5171.98       1.7149419    0.0017293940
      5177.15       1.7357641    0.0017425389
      5182.33       1.7571864    0.0017214799
      5187.51       1.7791273    0.0017177274
      5192.70       1.7995983    0.0017137293
      5197.89       1.8196283    0.0017097386
      5203.09       1.8376054    0.0016898823
      5208.29       1.8544788    0.0017019632
      5213.50       1.8689929    0.0016982720
      5218.72       1.8826232    0.0016782142
      5223.93       1.8960474    0.0016904643
      5229.16       1.9091844    0.0016709590
      5234.39       1.9228954    0.0016828506
      5239.62       1.9371191    0.0016791033
      5244.86       1.9519202    0.0016595165
      5250.11       1.9662624    0.0016715158
      5255.36       1.9813887    0.0016525461
      5260.61       1.9962493    0.0016483089
      5265.87       2.0101105    0.0016603690
      5271.14       2.0230597    0.0016413576
      5276.41       2.0350921    0.0016372816
      5281.69       2.0455574    0.0016347140
      5286.97       2.0544109    0.0016303604
      5292.26       2.0619107    0.0016264355
      5297.55       2.0684701    0.0016237889
      5302.85       2.0731283    0.0016195668
      5308.15       2.0759525    0.0016157371
      5313.46       2.0790701    0.0016130793
      5318.77       2.0808882    0.0016089403
