# starting wavelength =        3651.3700
# ending wavelength =        7401.3800
# O2 telluric scale =        0
# O2 telluric shift =        0
# H2O telluric scale =        0
# H2O telluric shift =        0
      3652.50       1.0276802     0.035501362
      3656.16       1.0296721     0.030087569
      3659.81       1.0267886     0.025773678
      3663.47       1.0239060     0.022941292
      3667.14       1.0196820     0.020169556
      3670.80       1.0171370     0.017992896
      3674.48       1.0204883     0.016019195
      3678.15       1.0206560     0.014773343
      3681.83       1.0190784     0.013815048
      3685.51       1.0164255     0.013072983
      3689.20       1.0117321     0.012567053
      3692.88       1.0060238     0.012082415
      3696.58       1.0010944     0.011696871
      3700.27      0.99508781     0.011306890
      3703.98      0.99402914     0.011059551
      3707.68      0.99407765     0.010854061
      3711.39      0.99728235     0.010633578
      3715.10      0.99960157     0.010477006
      3718.81      0.99999130     0.010343136
      3722.53       1.0034067     0.010316582
      3726.26       1.0067473     0.010349742
      3729.98       1.0108766     0.010383711
      3733.71       1.0107078     0.010303315
      3737.45       1.0129210     0.010336907
      3741.18       1.0169347     0.010371945
      3744.93       1.0191995     0.010344758
      3748.67       1.0218189     0.010325581
      3752.42       1.0253927     0.010359967
      3756.17       1.0215021     0.010333996
      3759.93       1.0232474     0.010369187
      3763.69       1.0315854     0.010350751
      3767.45       1.0357599     0.010322743
      3771.22       1.0374492     0.010359300
      3774.99       1.0352186     0.010396936
      3778.77       1.0417719     0.010312475
      3782.54       1.0380936     0.010350566
      3786.33       1.0432490     0.010387756
      3790.11       1.0476541     0.010361831
      3793.90       1.0495770     0.010400154
      3797.70       1.0528257     0.010382078
      3801.50       1.0661574     0.010353704
      3805.30       1.0628684     0.010392953
      3809.10       1.0622734     0.010434415
      3812.91       1.0621012     0.010406807
      3816.73       1.0671002     0.010388395
      3820.54       1.0745012     0.010360192
      3824.36       1.0766665     0.010401142
      3828.19       1.0836649     0.010444125
      3832.02       1.0918825     0.010416707
      3835.85       1.0961652     0.010460115
      3839.68       1.1010448     0.010439384
      3843.52       1.1077303     0.010412627
      3847.37       1.1126614     0.010457570
      3851.22       1.1117079     0.010430076
      3855.07       1.1136005     0.010475137
      3858.92       1.1089384     0.010521335
      3862.78       1.1074566     0.010427674
      3866.64       1.1067411     0.010475129
      3870.51       1.1054490     0.010447203
      3874.38       1.1069892     0.010493809
      3878.26       1.1120195     0.010542618
      3882.13       1.1065102     0.010515122
      3886.02       1.0942204     0.010564445
      3889.90       1.0883347     0.010468434
      3893.79       1.0829138     0.010516408
      3897.69       1.0803717     0.010568742
      3901.59       1.0770561     0.010540496
      3905.49       1.0789039     0.010590982
      3909.39       1.0778635     0.010565416
      3913.30       1.0745228     0.010617252
      3917.22       1.0791213     0.010670481
      3921.13       1.0822756     0.010645044
      3925.06       1.0833034     0.010699419
      3928.98       1.0851260     0.010596005
      3932.91       1.0875436     0.010652836
      3936.84       1.0940829     0.010624467
      3940.78       1.1016962     0.010680041
      3944.72       1.1051307     0.010740295
      3948.67       1.1047450     0.010711652
      3952.61       1.1120632     0.010769886
      3956.57       1.1209382     0.010744261
      3960.52       1.1303359     0.010804621
      3964.48       1.1435003     0.010777166
      3968.45       1.1551194     0.010839671
      3972.42       1.1675492     0.010904466
      3976.39       1.1696124     0.010876275
      3980.37       1.1723269     0.010941755
      3984.35       1.1804312     0.010916805
      3988.33       1.1900330     0.010982366
      3992.32       1.1958573     0.010865179
      3996.31       1.2008130     0.010935402
      4000.31       1.2089595     0.010906338
      4004.31       1.2120167     0.010973722
      4008.31       1.2176885     0.011050109
      4012.32       1.2222810     0.011019815
      4016.33       1.2226184     0.011090367
      4020.35       1.2240232     0.011063109
      4024.37       1.2203472     0.011142314
      4028.40       1.2152687     0.011112300
      4032.42       1.2048951     0.011084057
      4036.46       1.2053578     0.011159968
      4040.50       1.1972097     0.011037044
      4044.54       1.1996561     0.011007857
      4048.58       1.1952810     0.010979837
      4052.63       1.1886679     0.010953135
      4056.68       1.1805482     0.010933105
      4060.74       1.1795067     0.010904398
      4064.80       1.1810044     0.010876952
      4068.86       1.1763240     0.010754033
      4072.93       1.1781415     0.010830917
      4077.01       1.1843768     0.010802419
      4081.08       1.1931728     0.010774842
      4085.17       1.1925291     0.010652998
      4089.25       1.1998237     0.010627844
      4093.34       1.2039380     0.010701560
      4097.43       1.2053687     0.010674053
      4101.53       1.2063623     0.010553030
      4105.63       1.2080667     0.010527613
      4109.74       1.2111331     0.010503141
      4113.85       1.2119487     0.010479567
      4117.96       1.2040762     0.010454674
      4122.08       1.1985355     0.010429181
      4126.20       1.1826691     0.010404083
      4130.33       1.1715409     0.010379790
      4134.46       1.1614987     0.010356257
      4138.59       1.1529891     0.010239747
      4142.73       1.1444787     0.010306568
      4146.88       1.1306037     0.010281949
      4151.02       1.1275388     0.010257608
      4155.18       1.1193042     0.010145765
      4159.33       1.1121793     0.010119943
      4163.49       1.1077484     0.010094897
      4167.65       1.1001972     0.010161138
      4171.82       1.0958568     0.010137185
      4175.99       1.0912039     0.010028461
      4180.17       1.0870038     0.010002738
      4184.35       1.0851399    0.0099777428
      4188.54       1.0845130    0.0099530761
      4192.72       1.0764750    0.0099288981
      4196.92       1.0703779    0.0099052326
      4201.11       1.0655795    0.0098881079
      4205.31       1.0526098    0.0098630499
      4209.52       1.0434755    0.0098382596
      4213.73       1.0361973    0.0098137410
      4217.94       1.0368805    0.0097896546
      4222.16       1.0360963    0.0097661813
      4226.38       1.0322478    0.0096594819
      4230.61       1.0278463    0.0096368066
      4234.84       1.0268701    0.0096142980
      4239.08       1.0239122    0.0096777707
      4243.32       1.0215493    0.0096537715
      4247.56       1.0214237    0.0096303028
      4251.81       1.0304209    0.0095247265
      4256.06       1.0312190    0.0095019706
      4260.32       1.0395385    0.0094792796
      4264.58       1.0464855    0.0094568974
      4268.84       1.0516497    0.0094348992
      4273.11       1.0591098    0.0094129554
      4277.38       1.0647402    0.0093912747
      4281.66       1.0628717    0.0093696213
      4285.94       1.0711634    0.0092676019
      4290.23       1.0789564    0.0092454797
      4294.52       1.0926622    0.0093036119
      4298.81       1.1075402    0.0092813770
      4303.11       1.1095967    0.0092593580
      4307.42       1.1133137    0.0092375782
      4311.72       1.1222635    0.0092159429
      4316.04       1.1319003    0.0091945088
      4320.35       1.1318787    0.0091730716
      4324.67       1.1436958    0.0090772331
      4329.00       1.1605499    0.0090554158
      4333.33       1.1742564    0.0090337137
      4337.66       1.1839158    0.0090120068
      4342.00       1.1964833    0.0089904930
      4346.34       1.1997911    0.0089691675
      4350.69       1.2022954    0.0089478101
      4355.04       1.2034880    0.0089268050
      4359.39       1.2111598    0.0089059581
      4363.75       1.2275528    0.0088850681
      4368.12       1.2408041    0.0088641458
      4372.48       1.2472640    0.0088435389
      4376.86       1.2615265    0.0088229473
      4381.23       1.2670278    0.0087295351
      4385.61       1.2659190    0.0087092405
      4390.00       1.2719632    0.0086890710
      4394.39       1.2788339    0.0086687166
      4398.79       1.2808948    0.0086487377
      4403.18       1.2849291    0.0086288774
      4407.59       1.2926894    0.0086088093
      4412.00       1.2994056    0.0085888195
      4416.41       1.3069785    0.0085692369
      4420.82       1.3110395    0.0085494519
      4425.25       1.3140946    0.0085297486
      4429.67       1.3109164    0.0085101510
      4434.10       1.3146436    0.0084906636
      4438.54       1.3299369    0.0084710873
      4442.97       1.3443400    0.0084517193
      4447.42       1.3560688    0.0084324714
      4451.86       1.3662516    0.0084130730
      4456.32       1.3755363    0.0083937519
      4460.77       1.3843158    0.0083049771
      4465.24       1.3824260    0.0082861615
      4469.70       1.3829754    0.0082673493
      4474.17       1.3865582    0.0082486588
      4478.65       1.3805780    0.0082302210
      4483.12       1.3805523    0.0082115790
      4487.61       1.3863091    0.0081931912
      4492.09       1.3849965    0.0081749366
      4496.59       1.3901916    0.0081567056
      4501.08       1.3923351    0.0081385549
      4505.58       1.3928778    0.0081206542
      4510.09       1.3907728    0.0081028096
      4514.60       1.3862036    0.0080849804
      4519.12       1.3865428    0.0079983221
      4523.63       1.3899695    0.0079802961
      4528.16       1.3808390    0.0079624459
      4532.69       1.3781002    0.0079446069
      4537.22       1.3820287    0.0079269393
      4541.76       1.3779561    0.0079094683
      4546.30       1.3719902    0.0078919587
      4550.85       1.3601938    0.0079382348
      4555.40       1.3549348    0.0079210501
      4559.95       1.3450124    0.0078393621
      4564.51       1.3389935    0.0078214471
      4569.08       1.3342816    0.0078038301
      4573.65       1.3316068    0.0077862958
      4578.22       1.3240999    0.0077690082
      4582.80       1.3194370    0.0077517990
      4587.38       1.3092942    0.0077349112
      4591.97       1.3038206    0.0076559553
      4596.56       1.2901287    0.0076397037
      4601.16       1.2785318    0.0076235712
      4605.76       1.2715124    0.0076076991
      4610.37       1.2634212    0.0076500372
      4614.98       1.2573686    0.0076331273
      4619.59       1.2515165    0.0076164932
      4624.21       1.2470128    0.0075388342
      4628.84       1.2412370    0.0075228592
      4633.47       1.2360145    0.0075071573
      4638.10       1.2319474    0.0074916629
      4642.74       1.2285525    0.0074766587
      4647.38       1.2214559    0.0073989837
      4652.03       1.2194676    0.0074407805
      4656.68       1.2094407    0.0074250133
      4661.34       1.1995382    0.0074096308
      4666.00       1.1874098    0.0073946532
      4670.67       1.1782077    0.0073196935
      4675.33       1.1670087    0.0073037271
      4680.01       1.1621543    0.0072882733
      4684.69       1.1463945    0.0073300476
      4689.38       1.1448228    0.0073152046
      4694.07       1.1456461    0.0072419599
      4698.76       1.1450662    0.0072262562
      4703.46       1.1437810    0.0072109766
      4708.16       1.1388532    0.0071959771
      4712.87       1.1366418    0.0071814448
      4717.58       1.1373116    0.0071656924
      4722.30       1.1377215    0.0071502507
      4727.03       1.1387335    0.0071350568
      4731.75       1.1426527    0.0071204908
      4736.48       1.1402202    0.0070509482
      4741.22       1.1359528    0.0070908520
      4745.96       1.1292844    0.0070756490
      4750.71       1.1231744    0.0070611150
      4755.46       1.1157529    0.0069920175
      4760.22       1.1114777    0.0069786100
      4764.97       1.1068161    0.0069656620
      4769.74       1.1061170    0.0070027812
      4774.51       1.1017174    0.0069342935
      4779.29       1.1028191    0.0069210419
      4784.07       1.0988533    0.0069083109
      4788.85       1.0960759    0.0068912607
      4793.64       1.0889479    0.0068776852
      4798.43       1.0851875    0.0068647477
      4803.23       1.0815449    0.0068523731
      4808.03       1.0829035    0.0067840787
      4812.84       1.0770980    0.0068223794
      4817.66       1.0726072    0.0068098858
      4822.48       1.0730125    0.0067432403
      4827.30       1.0693688    0.0067298227
      4832.12       1.0617239    0.0067681969
      4836.96       1.0579887    0.0067032149
      4841.79       1.0539885    0.0066895683
      4846.63       1.0505239    0.0066766677
      4851.48       1.0554900    0.0066637152
      4856.33       1.0540324    0.0066500517
      4861.19       1.0514829    0.0066370508
      4866.05       1.0458462    0.0065748179
      4870.92       1.0434074    0.0066111329
      4875.79       1.0392446    0.0065982311
      4880.66       1.0403720    0.0065362386
      4885.55       1.0423862    0.0065728661
      4890.43       1.0440174    0.0065598424
      4895.32       1.0452659    0.0064983368
      4900.22       1.0484433    0.0064871674
      4905.12       1.0468732    0.0065221192
      4910.02       1.0512131    0.0064609790
      4914.94       1.0589061    0.0064500203
      4919.85       1.0621302    0.0064849894
      4924.77       1.0641940    0.0064242829
      4929.70       1.0750032    0.0064136593
      4934.62       1.0873056    0.0063997388
      4939.56       1.0981718    0.0063884196
      4944.50       1.1090548    0.0063780417
      4949.44       1.1158436    0.0063640007
      4954.39       1.1268314    0.0063530589
      4959.35       1.1370170    0.0062940795
      4964.31       1.1504681    0.0063289566
      4969.27       1.1649719    0.0063183678
      4974.24       1.1817875    0.0062593498
      4979.22       1.1958775    0.0062945381
      4984.20       1.2092139    0.0062369489
      4989.18       1.2212994    0.0062253230
      4994.17       1.2373260    0.0062608577
      4999.16       1.2450883    0.0062030572
      5004.16       1.2519793    0.0061921701
      5009.17       1.2614773    0.0061812499
      5014.18       1.2691284    0.0061697828
      5019.19       1.2772805    0.0061145431
      5024.21       1.2880324    0.0061481152
      5029.23       1.2914351    0.0060926706
      5034.26       1.2929404    0.0061267820
      5039.30       1.2979025    0.0061158329
      5044.34       1.3041742    0.0060616203
      5049.39       1.3050115    0.0060947457
      5054.43       1.3068636    0.0060403120
      5059.49       1.3154206    0.0060738420
      5064.55       1.3201480    0.0060193025
      5069.61       1.3233817    0.0060105363
      5074.68       1.3272746    0.0059987169
      5079.76       1.3318693    0.0059897054
      5084.84       1.3335401    0.0059784573
      5089.92       1.3403845    0.0059692780
      5095.01       1.3412477    0.0059159986
      5100.11       1.3427252    0.0059492488
      5105.21       1.3485280    0.0058965627
      5110.31       1.3454221    0.0059295699
      5115.42       1.3468431    0.0058773212
      5120.54       1.3476931    0.0059100735
      5125.66       1.3460509    0.0058583537
      5130.79       1.3467828    0.0058489060
      5135.92       1.3430079    0.0058395702
      5141.05       1.3395002    0.0058300532
      5146.20       1.3369796    0.0058209128
      5151.34       1.3384756    0.0058115979
      5156.49       1.3445201    0.0058026460
      5161.65       1.3404018    0.0057933310
      5166.81       1.3420984    0.0057844999
      5171.98       1.3401501    0.0057753928
      5177.15       1.3446171    0.0057666348
      5182.33       1.3410325    0.0057168830
      5187.51       1.3412007    0.0057489506
      5192.70       1.3404667    0.0056995752
      5197.89       1.3399962    0.0057314396
      5203.09       1.3304479    0.0056824395
      5208.29       1.3195683    0.0057142038
      5213.50       1.3145682    0.0056656822
      5218.72       1.3057952    0.0056972014
      5223.93       1.2997472    0.0056491626
      5229.16       1.2884012    0.0056402397
      5234.39       1.2760900    0.0056330587
      5239.62       1.2741096    0.0056240231
      5244.86       1.2677408    0.0056172423
      5250.11       1.2623084    0.0056080409
      5255.36       1.2619446    0.0055610314
      5260.61       1.2527924    0.0055924181
      5265.87       1.2481357    0.0055452478
      5271.14       1.2456124    0.0055771378
      5276.41       1.2438402    0.0055298168
      5281.69       1.2395007    0.0055224472
      5286.97       1.2410426    0.0055147912
      5292.26       1.2431172    0.0055071206
      5297.55       1.2355589    0.0055004937
      5302.85       1.2276734    0.0054921761
      5308.15       1.2262864    0.0054851581
      5313.46       1.2253080    0.0054777670
      5318.77       1.2253738    0.0054704659
      5324.09       1.2237031    0.0054263477
      5329.42       1.2162848    0.0054561145
      5334.75       1.2122405    0.0054492882
      5340.08       1.2131716    0.0054049620
      5345.42       1.2085659    0.0054350854
      5350.77       1.2036085    0.0053918163
      5356.12       1.1997647    0.0053843111
      5361.48       1.1874390    0.0054146621
      5366.83       1.1826021    0.0053713825
      5372.20       1.1817431    0.0053641545
      5377.58       1.1742382    0.0053592308
      5382.95       1.1703461    0.0053516146
      5388.34       1.1663916    0.0053447130
      5393.72       1.1593527    0.0053022257
      5399.12       1.1498802    0.0053323844
      5404.52       1.1448839    0.0053257141
      5409.92       1.1402572    0.0052834412
      5415.33       1.1345029    0.0053136461
      5420.75       1.1292950    0.0052710569
      5426.17       1.1226588    0.0052651791
      5431.60       1.1155484    0.0052598481
      5437.03       1.1108643    0.0052531299
      5442.47       1.1095652    0.0052473597
      5447.91       1.1053818    0.0052421012
      5453.36       1.0985672    0.0052358542
      5458.81       1.0912180    0.0052300087
      5464.27       1.0840535    0.0052247903
      5469.73       1.0790984    0.0051843590
      5475.20       1.0730756    0.0052132965
      5480.68       1.0673892    0.0052079208
      5486.16       1.0660389    0.0051683454
      5491.65       1.0610580    0.0051625498
      5497.14       1.0577018    0.0051916617
      5502.64       1.0520087    0.0051867277
      5508.14       1.0492699    0.0051471554
      5513.65       1.0500418    0.0051416917
      5519.16       1.0477383    0.0051365952
      5524.68       1.0447478    0.0051324622
      5530.20       1.0391761    0.0051269173
      5535.73       1.0371152    0.0051217099
      5541.27       1.0304754    0.0050828200
      5546.81       1.0273270    0.0050782801
      5552.36       1.0222295    0.0051076802
      5557.91       1.0160289    0.0051026530
      5563.47       1.0049753    0.0050639738
      5569.04      0.99466477    0.0050595753
      5574.60      0.98748076    0.0050554736
      5580.18      0.98314416    0.0050844844
      5585.76      0.98195447    0.0050460215
      5591.35      0.97822602    0.0050416529
      5596.94      0.97426389    0.0050375616
      5602.53      0.97773142    0.0050336850
      5608.14      0.97805609    0.0049965154
