# starting wavelength =        3711.8400
# ending wavelength =        7523.9600
# O2 telluric scale =        0
# O2 telluric shift =        0
# H2O telluric scale =        0
# H2O telluric shift =        0
      3715.10      0.30514628    0.0049791004
      3718.81      0.30313210    0.0042399620
      3722.53      0.30011682    0.0035462232
      3726.26      0.29643933    0.0031076219
      3729.98      0.29276612    0.0027625800
      3733.71      0.28944043    0.0025480225
      3737.45      0.28606063    0.0023289291
      3741.18      0.28197737    0.0021599256
      3744.93      0.27832048    0.0020295224
      3748.67      0.27481658    0.0019099922
      3752.42      0.27222060    0.0018346945
      3756.17      0.26982386    0.0017753147
      3759.93      0.26689132    0.0017280618
      3763.69      0.26505784    0.0016866701
      3767.45      0.26315102    0.0016526032
      3771.22      0.26225620    0.0016146899
      3774.99      0.26097961    0.0015913072
      3778.77      0.26068993    0.0015714535
      3782.54      0.25971272    0.0015615503
      3786.33      0.25930722    0.0015686377
      3790.11      0.26015113    0.0015675521
      3793.90      0.26073364    0.0015658642
      3797.70      0.26245198    0.0015731601
      3801.50      0.26435376    0.0015805797
      3805.30      0.26730941    0.0015703599
      3809.10      0.27148000    0.0015778241
      3812.91      0.27665098    0.0015853134
      3816.73      0.28247537    0.0015840222
      3820.54      0.28852374    0.0015825562
      3824.36      0.29442334    0.0015904179
      3828.19      0.30326618    0.0015888182
      3832.02      0.31090943    0.0015967107
      3835.85      0.31897442    0.0015953635
      3839.68      0.32739273    0.0015939429
      3843.52      0.33554934    0.0016019750
      3847.37      0.34471404    0.0016100346
      3851.22      0.35508950    0.0016087794
      3855.07      0.36523243    0.0016073043
      3858.92      0.37567705    0.0016158454
      3862.78      0.38755084    0.0016142202
      3866.64      0.39716198    0.0016226551
      3870.51      0.40598854    0.0016313486
      3874.38      0.41550317    0.0016199143
      3878.26      0.42463552    0.0016287246
      3882.13      0.43276026    0.0016271538
      3886.02      0.44000343    0.0016359476
      3889.90      0.44728527    0.0016449440
      3893.79      0.45363482    0.0016331865
      3897.69      0.46015131    0.0016423346
      3901.59      0.46617298    0.0016512574
      3905.49      0.47282987    0.0016499303
      3909.39      0.47841396    0.0016593095
      3913.30      0.48383742    0.0016578741
      3917.22      0.48808422    0.0016567560
      3921.13      0.49248126    0.0016660312
      3925.06      0.49701635    0.0016647136
      3928.98      0.50115363    0.0016745491
      3932.91      0.50520049    0.0016730679
      3936.84      0.51072425    0.0016830405
      3940.78      0.51550316    0.0016931963
      3944.72      0.51910227    0.0016802721
      3948.67      0.52252287    0.0016906978
      3952.61      0.52635358    0.0016891567
      3956.57      0.53032866    0.0016994545
      3960.52      0.53469970    0.0017102689
      3964.48      0.53975926    0.0017087745
      3968.45      0.54404242    0.0017195849
      3972.42      0.54805111    0.0017185541
      3976.39      0.55008710    0.0017293488
      3980.37      0.55169504    0.0017284506
      3984.35      0.55226488    0.0017267895
      3988.33      0.55286716    0.0017378841
      3992.32      0.55314316    0.0017366746
      3996.31      0.55219233    0.0017483459
      4000.31      0.55172036    0.0017599593
      4004.31      0.55120817    0.0017587601
      4008.31      0.55080663    0.0017710249
      4012.32      0.54812248    0.0017695830
      4016.33      0.54573213    0.0017819675
      4020.35      0.54181122    0.0017810150
      4024.37      0.53664959    0.0017934709
      4028.40      0.53332896    0.0018064758
      4032.42      0.53110810    0.0017910413
      4036.46      0.52838965    0.0018036967
      4040.50      0.52255897    0.0018024315
      4044.54      0.51801343    0.0018163040
      4048.58      0.51460170    0.0018147356
      4052.63      0.51156256    0.0018281775
      4056.68      0.50989773    0.0018270674
      4060.74      0.50831660    0.0018413235
      4064.80      0.50640397    0.0018554076
      4068.86      0.50570095    0.0018542257
      4072.93      0.50455682    0.0018695509
      4077.01      0.50301608    0.0018680130
      4081.08      0.50170624    0.0018829841
      4085.17      0.50064596    0.0018819290
      4089.25      0.50107702    0.0018978968
      4093.34      0.50116677    0.0018964301
      4097.43      0.50127500    0.0018952021
      4101.53      0.50189926    0.0018942026
      4105.63      0.50289707    0.0018925666
      4109.74      0.50357723    0.0018911578
      4113.85      0.50555803    0.0018899754
      4117.96      0.50655659    0.0018889777
      4122.08      0.50665945    0.0018873933
      4126.20      0.50717021    0.0018860311
      4130.33      0.50896513    0.0018848900
      4134.46      0.50985502    0.0018839627
      4138.59      0.51075372    0.0018824095
      4142.73      0.51277776    0.0018810532
      4146.88      0.51520878    0.0018626461
      4151.02      0.51700083    0.0018616559
      4155.18      0.51815086    0.0018775544
      4159.33      0.52140860    0.0018761712
      4163.49      0.52534624    0.0018577411
      4167.65      0.52920465    0.0018566966
      4171.82      0.53326988    0.0018557884
      4175.99      0.53694337    0.0018550627
      4180.17      0.54126029    0.0018529715
      4184.35      0.54624266    0.0018518457
      4188.54      0.55023090    0.0018508674
      4192.72      0.55520536    0.0018500272
      4196.92      0.55974910    0.0018493210
      4201.11      0.56459440    0.0018472412
      4205.31      0.56894910    0.0018461564
      4209.52      0.57399883    0.0018451810
      4213.73      0.57765797    0.0018443270
      4217.94      0.58150792    0.0018269807
      4222.16      0.58620778    0.0018257711
      4226.38      0.58902645    0.0018246632
      4230.61      0.59210475    0.0018395061
      4234.84      0.59432496    0.0018385930
      4239.08      0.59758316    0.0018215958
      4243.32      0.59978111    0.0018203658
      4247.56      0.60242533    0.0018192350
      4251.81      0.60534851    0.0018182072
      4256.06      0.60881763    0.0018172238
      4260.32      0.61185530    0.0018166006
      4264.58      0.61487784    0.0018153255
      4268.84      0.61697268    0.0018141403
      4273.11      0.61908071    0.0018130257
      4277.38      0.62236174    0.0018119835
      4281.66      0.62734750    0.0018109720
      4285.94      0.63048911    0.0017941944
      4290.23      0.63482947    0.0017931470
      4294.52      0.63854012    0.0018081834
      4298.81      0.64229297    0.0018070547
      4303.11      0.64592561    0.0018059930
      4307.42      0.64835425    0.0018049896
      4311.72      0.64989707    0.0017880516
      4316.04      0.65010873    0.0017871516
      4320.35      0.65213164    0.0017862923
      4324.67      0.65226486    0.0017854694
      4329.00      0.65429721    0.0017846810
      4333.33      0.65673944    0.0017839251
      4337.66      0.65845364    0.0017831966
      4342.00      0.66004725    0.0017824954
      4346.34      0.66320902    0.0017805124
      4350.69      0.66628998    0.0017795909
      4355.04      0.67081997    0.0017787053
      4359.39      0.67746050    0.0017778546
      4363.75      0.68588302    0.0017770413
      4368.12      0.69377116    0.0017762299
      4372.48      0.70386452    0.0017754740
      4376.86      0.71402801    0.0017747176
      4381.23      0.72375752    0.0017588277
      4385.61      0.73391465    0.0017579095
      4390.00      0.74411551    0.0017570136
      4394.39      0.75362510    0.0017561379
      4398.79      0.76269120    0.0017552805
      4403.18      0.77333599    0.0017544099
      4407.59      0.78390547    0.0017535723
      4412.00      0.79451452    0.0017527612
      4416.41      0.80678244    0.0017519729
      4420.82      0.81888633    0.0017512003
      4425.25      0.83293099    0.0017504399
      4429.67      0.84697145    0.0017496882
      4434.10      0.86153308    0.0017339372
      4438.54      0.87524631    0.0017332008
      4442.97      0.89119485    0.0017324642
      4447.42      0.90899418    0.0017317278
      4451.86      0.92617066    0.0017309945
      4456.32      0.94312359    0.0017302593
      4460.77      0.96040948    0.0017295253
      4465.24      0.97779438    0.0017287900
      4469.70      0.99508645    0.0017280598
      4474.17       1.0121545    0.0017273351
      4478.65       1.0281935    0.0017266166
      4483.12       1.0448231    0.0017259098
      4487.61       1.0624307    0.0017252203
      4492.09       1.0782341    0.0017245101
      4496.59       1.0938571    0.0017238016
      4501.08       1.1091202    0.0017230961
      4505.58       1.1238516    0.0017223895
      4510.09       1.1383285    0.0017216842
      4514.60       1.1514055    0.0017209799
      4519.12       1.1635801    0.0017202615
      4523.63       1.1740496    0.0017195603
      4528.16       1.1844732    0.0017188682
      4532.69       1.1937159    0.0017181850
      4537.22       1.2015165    0.0017175108
      4541.76       1.2067711    0.0017168382
      4546.30       1.2135644    0.0017161691
      4550.85       1.2189502    0.0017155031
      4555.40       1.2235818    0.0017010604
      4559.95       1.2278961    0.0017004139
      4564.51       1.2318880    0.0016997633
      4569.08       1.2358995    0.0016991180
      4573.65       1.2388897    0.0016984812
      4578.22       1.2394146    0.0016978531
      4582.80       1.2389449    0.0016972378
      4587.38       1.2366877    0.0016966386
      4591.97       1.2343139    0.0016960594
      4596.56       1.2301482    0.0016955051
      4601.16       1.2234207    0.0016949801
      4605.76       1.2168487    0.0016808081
      4610.37       1.2081930    0.0016801365
      4614.98       1.1980819    0.0016794776
      4619.59       1.1865870    0.0016788359
      4624.21       1.1740621    0.0016782148
      4628.84       1.1612787    0.0016775875
      4633.47       1.1481633    0.0016769967
      4638.10       1.1339988    0.0016764414
      4642.74       1.1208197    0.0016759219
      4647.38       1.1081501    0.0016762872
      4652.03       1.0962231    0.0016755827
      4656.68       1.0831527    0.0016749089
      4661.34       1.0698091    0.0016742602
      4666.00       1.0564007    0.0016736371
      4670.67       1.0426784    0.0016730450
      4675.33       1.0296085    0.0016724850
      4680.01       1.0156973    0.0016589773
      4684.69       1.0032714    0.0016584936
      4689.38      0.99298673    0.0016580493
      4694.07      0.98444536    0.0016576484
      4698.76      0.97592539    0.0016703676
      4703.46      0.96953724    0.0016697441
      4708.16      0.96444510    0.0016562133
      4712.87      0.95882462    0.0016557122
      4717.58      0.95321722    0.0016552732
      4722.30      0.94710813    0.0016548737
      4727.03      0.94184539    0.0016545330
      4731.75      0.93736713    0.0016409404
      4736.48      0.93281755    0.0016403763
      4741.22      0.92826029    0.0016531704
      4745.96      0.92298527    0.0016527104
      4750.71      0.91846079    0.0016523285
      4755.46      0.91544291    0.0016390907
      4760.22      0.91327823    0.0016384867
      4764.97      0.91277465    0.0016379556
      4769.74      0.91339727    0.0016374960
      4774.51      0.91649180    0.0016504029
      4779.29      0.92285113    0.0016373389
      4784.07      0.92858980    0.0016366986
      4788.85      0.93581631    0.0016361380
      4793.64      0.94438678    0.0016356586
      4798.43      0.95344160    0.0016229584
      4803.23      0.96017940    0.0016354885
      4808.03      0.96528821    0.0016348336
      4812.84      0.96884716    0.0016342755
      4817.66      0.97030331    0.0016215490
      4822.48      0.97080523    0.0016212069
      4827.30      0.96925314    0.0016336503
      4832.12      0.96739652    0.0016330633
      4836.96      0.96373681    0.0016203028
      4841.79      0.96234915    0.0016199338
      4846.63      0.96201486    0.0016196793
      4851.48      0.96217600    0.0016318764
      4856.33      0.96516301    0.0016190758
      4861.19      0.96871634    0.0016187074
      4866.05      0.97325380    0.0016184495
      4870.92      0.97783333    0.0016183320
      4875.79      0.98274704    0.0016178984
      4880.66      0.98673531    0.0016175529
      4885.55      0.99191974    0.0016173396
      4890.43      0.99595465    0.0016046469
      4895.32      0.99967699    0.0016168177
      4900.22       1.0030073    0.0016164980
      4905.12       1.0063981    0.0016040787
      4910.02       1.0085850    0.0016035139
      4914.94       1.0102514    0.0016031014
      4919.85       1.0113020    0.0016154828
      4924.77       1.0131953    0.0016028881
      4929.70       1.0135845    0.0016023975
      4934.62       1.0152417    0.0016146958
      4939.56       1.0158776    0.0016023099
      4944.50       1.0173413    0.0016017650
      4949.44       1.0172802    0.0016014087
      4954.39       1.0163486    0.0016017603
      4959.35       1.0129885    0.0016011828
      4964.31       1.0075074    0.0016007753
      4969.27       1.0002642    0.0015888830
      4974.24      0.99292364    0.0016005808
      4979.22      0.98590670    0.0015884687
      4984.20      0.97853797    0.0015882534
      4989.18      0.97279314    0.0015999997
      4994.17      0.96941626    0.0015879248
      4999.16      0.96814103    0.0015877236
      5004.16      0.96706011    0.0015994588
      5009.17      0.96802917    0.0015873929
      5014.18      0.97063135    0.0015872105
      5019.19      0.97483222    0.0015751884
      5024.21      0.97995982    0.0015868417
      5029.23      0.98707515    0.0015866957
      5034.26      0.99561521    0.0015746139
      5039.30       1.0053020    0.0015863242
      5044.34       1.0138835    0.0015862445
      5049.39       1.0234073    0.0015740480
      5054.43       1.0326063    0.0015858393
      5059.49       1.0419634    0.0015739443
      5064.55       1.0503638    0.0015735453
      5069.61       1.0584454    0.0015739617
      5074.68       1.0657235    0.0015734116
      5079.76       1.0721791    0.0015851345
      5084.84       1.0801838    0.0015733449
      5089.92       1.0882181    0.0015728829
      5095.01       1.0955458    0.0015733450
      5100.11       1.1026482    0.0015727527
      5105.21       1.1096578    0.0015613402
      5110.31       1.1146138    0.0015727035
      5115.42       1.1197916    0.0015722901
      5120.54       1.1247260    0.0015610768
      5125.66       1.1300134    0.0015721704
      5130.79       1.1357688    0.0015608317
      5135.92       1.1415384    0.0015720878
      5141.05       1.1483676    0.0015606293
      5146.20       1.1570301    0.0015606318
      5151.34       1.1663459    0.0015604647
      5156.49       1.1770361    0.0015603704
      5161.65       1.1882280    0.0015603013
      5166.81       1.1991945    0.0015601295
      5171.98       1.2103547    0.0015601773
      5177.15       1.2227951    0.0015599396
      5182.33       1.2362398    0.0015485945
      5187.51       1.2501399    0.0015598146
      5192.70       1.2645876    0.0015485275
      5197.89       1.2793136    0.0015596745
      5203.09       1.2915918    0.0015484235
      5208.29       1.3020456    0.0015595144
      5213.50       1.3133035    0.0015483219
      5218.72       1.3235959    0.0015479031
      5223.93       1.3335717    0.0015482644
      5229.16       1.3436979    0.0015478283
      5234.39       1.3539921    0.0015481844
      5239.62       1.3640287    0.0015477327
      5244.86       1.3751232    0.0015480749
      5250.11       1.3852261    0.0015476167
      5255.36       1.3958495    0.0015479719
      5260.61       1.4057807    0.0015475154
      5265.87       1.4145227    0.0015478325
      5271.14       1.4232227    0.0015367537
      5276.41       1.4316842    0.0015476608
      5281.69       1.4384626    0.0015366381
      5286.97       1.4445528    0.0015475191
      5292.26       1.4490440    0.0015365479
      5297.55       1.4535427    0.0015473871
      5302.85       1.4564119    0.0015364912
      5308.15       1.4587446    0.0015366302
      5313.46       1.4618911    0.0015364250
      5318.77       1.4634694    0.0015364767
      5324.09       1.4669307    0.0015363779
      5329.42       1.4707984    0.0015363764
      5334.75       1.4761579    0.0015363963
      5340.08       1.4823479    0.0015363036
      5345.42       1.4897480    0.0015255181
      5350.77       1.4976345    0.0015362637
      5356.12       1.5062601    0.0015253735
      5361.48       1.5162786    0.0015362645
      5366.83       1.5254183    0.0015252536
      5372.20       1.5353884    0.0015255279
      5377.58       1.5458889    0.0015251718
      5382.95       1.5545496    0.0015253096
      5388.34       1.5633293    0.0015257123
      5393.72       1.5722446    0.0015251445
      5399.12       1.5813037    0.0015254231
      5404.52       1.5895342    0.0015148568
      5409.92       1.5968728    0.0015251953
      5415.33       1.6031471    0.0015148488
      5420.75       1.6078075    0.0015250681
      5426.17       1.6115425    0.0015252976
      5431.60       1.6133355    0.0015148030
      5437.03       1.6139303    0.0015250838
      5442.47       1.6114713    0.0015148511
      5447.91       1.6084390    0.0015147797
      5453.36       1.6038800    0.0015251303
      5458.81       1.5979660    0.0015148250
      5464.27       1.5924017    0.0015148098
      5469.73       1.5866038    0.0015044176
      5475.20       1.5806172    0.0015147965
      5480.68       1.5745507    0.0015148162
      5486.16       1.5675851    0.0015044152
      5491.65       1.5617374    0.0015147718
      5497.14       1.5576011    0.0015147530
      5502.64       1.5527440    0.0015043591
      5508.14       1.5491658    0.0015147276
      5513.65       1.5454015    0.0015147074
      5519.16       1.5407117    0.0015042842
      5524.68       1.5374533    0.0015045688
      5530.20       1.5319334    0.0015041294
      5535.73       1.5259471    0.0015042400
      5541.27       1.5197037    0.0015044632
      5546.81       1.5123787    0.0014942987
      5552.36       1.5059250    0.0015041431
      5557.91       1.4978825    0.0015043186
      5563.47       1.4890580    0.0014942855
      5569.04       1.4787985    0.0014942859
      5574.60       1.4677427    0.0015041995
      5580.18       1.4543443    0.0015044221
      5585.76       1.4410250    0.0014942574
      5591.35       1.4272746    0.0014942868
      5596.94       1.4122316    0.0015042145
      5602.53       1.3960484    0.0014942584
      5608.14       1.3783900    0.0014941919
      5613.75       1.3606736    0.0014942195
      5619.36       1.3434091    0.0014842091
      5624.98       1.3260689    0.0014941535
      5630.60       1.3084942    0.0014940812
      5636.23       1.2907098    0.0014940975
      5641.87       1.2743684    0.0014840727
      5647.51       1.2578296    0.0014842467
      5653.16       1.2412947    0.0014939751
      5658.82       1.2265982    0.0014939740
      5664.47       1.2134351    0.0014838912
      5670.14       1.2007874    0.0014840180
      5675.81       1.1898346    0.0014841937
      5681.48       1.1816504    0.0014938357
      5687.17       1.1758811    0.0014837172
      5692.85       1.1725891    0.0014837894
      5698.55       1.1703780    0.0014838926
      5704.25       1.1706028    0.0014840292
