# starting wavelength =        3711.8400
# ending wavelength =        7523.9600
# O2 telluric scale =        0
# O2 telluric shift =        0
# H2O telluric scale =        0
# H2O telluric shift =        0
      3715.10      0.57818211    0.0097536157
      3718.81      0.58013625    0.0083002206
      3722.53      0.58063683    0.0069373444
      3726.26      0.58065905    0.0060753619
      3729.98      0.58082816    0.0053972845
      3733.71      0.58033754    0.0049718256
      3737.45      0.57989889    0.0045414147
      3741.18      0.57876370    0.0042091604
      3744.93      0.57659707    0.0039525065
      3748.67      0.57501920    0.0037166637
      3752.42      0.57453857    0.0035677113
      3756.17      0.57454779    0.0034498974
      3759.93      0.57406605    0.0033545115
      3763.69      0.57645785    0.0032720180
      3767.45      0.57803855    0.0032038222
      3771.22      0.57961175    0.0031272495
      3774.99      0.58150179    0.0030798990
      3778.77      0.58369600    0.0030394453
      3782.54      0.58621590    0.0030153534
      3786.33      0.58841616    0.0030241225
      3790.11      0.59112654    0.0030180855
      3793.90      0.59253221    0.0030089298
      3797.70      0.59545293    0.0030180272
      3801.50      0.60010024    0.0030273196
      3805.30      0.60284737    0.0030027985
      3809.10      0.60897234    0.0030121444
      3812.91      0.61609561    0.0030214932
      3816.73      0.62554620    0.0030130824
      3820.54      0.63329802    0.0030063345
      3824.36      0.64155653    0.0030163176
      3828.19      0.65022900    0.0030073301
      3832.02      0.65769350    0.0030173038
      3835.85      0.66640663    0.0030107792
      3839.68      0.67668103    0.0030021387
      3843.52      0.68691765    0.0030122985
      3847.37      0.69547021    0.0030224624
      3851.22      0.70622062    0.0030141051
      3855.07      0.71642121    0.0030073466
      3858.92      0.72666095    0.0030183334
      3862.78      0.73878241    0.0030092946
      3866.64      0.74849572    0.0030200101
      3870.51      0.75750311    0.0030311599
      3874.38      0.76642577    0.0030048877
      3878.26      0.77541972    0.0030162169
      3882.13      0.78310581    0.0030072827
      3886.02      0.78964672    0.0030185073
      3889.90      0.79749276    0.0030300587
      3893.79      0.80182512    0.0030033586
      3897.69      0.80721608    0.0030151505
      3901.59      0.81147030    0.0030264762
      3905.49      0.81744279    0.0030179692
      3909.39      0.82287510    0.0030300621
      3913.30      0.82890147    0.0030213491
      3917.22      0.83487551    0.0030152584
      3921.13      0.84196187    0.0030270561
      3925.06      0.84738604    0.0030185696
      3928.98      0.85505072    0.0030313150
      3932.91      0.86128748    0.0030225215
      3936.84      0.86739824    0.0030354316
      3940.78      0.87284156    0.0030486220
      3944.72      0.87791373    0.0030202376
      3948.67      0.88300140    0.0030338688
      3952.61      0.89015455    0.0030249678
      3956.57      0.89607157    0.0030382842
      3960.52      0.90296937    0.0030524686
      3964.48      0.91029547    0.0030436160
      3968.45      0.91613637    0.0030577044
      3972.42      0.92192230    0.0030496656
      3976.39      0.92534197    0.0030636402
      3980.37      0.92643590    0.0030579000
      3984.35      0.92494984    0.0030487482
      3988.33      0.92438596    0.0030631446
      3992.32      0.92267170    0.0030547832
      3996.31      0.92084369    0.0030701068
      4000.31      0.91799868    0.0030852654
      4004.31      0.91631534    0.0030768778
      4008.31      0.91475431    0.0030930835
      4012.32      0.91139620    0.0030842605
      4016.33      0.90701857    0.0031005733
      4020.35      0.90220298    0.0030925871
      4024.37      0.89732469    0.0031089281
      4028.40      0.89508111    0.0031261484
      4032.42      0.89299836    0.0030941455
      4036.46      0.89022678    0.0031107090
      4040.50      0.88752975    0.0031021683
      4044.54      0.88576253    0.0031207265
      4048.58      0.88809936    0.0031116491
      4052.63      0.88989246    0.0031293562
      4056.68      0.89398386    0.0031210480
      4060.74      0.89874250    0.0031400438
      4064.80      0.90326259    0.0031586681
      4068.86      0.90722651    0.0031501847
      4072.93      0.91128758    0.0031708056
      4077.01      0.91785089    0.0031617005
      4081.08      0.92247149    0.0031816020
      4085.17      0.92766240    0.0031732888
      4089.25      0.93340005    0.0031948374
      4093.34      0.93755428    0.0031857336
      4097.43      0.94422875    0.0031771334
      4101.53      0.94903235    0.0031711119
      4105.63      0.95470934    0.0031618647
      4109.74      0.96005155    0.0031530218
      4113.85      0.96565362    0.0031445771
      4117.96      0.96915004    0.0031386115
      4122.08      0.97025233    0.0031295372
      4126.20      0.97265008    0.0031208553
      4130.33      0.97585569    0.0031125561
      4134.46      0.97834708    0.0031067644
      4138.59      0.98113250    0.0030978191
      4142.73      0.98367676    0.0030892271
      4146.88      0.98451444    0.0030537474
      4151.02      0.98585738    0.0030458519
      4155.18      0.98870558    0.0030666133
      4159.33      0.99199171    0.0030580575
      4163.49      0.99944486    0.0030228217
      4167.65       1.0046403    0.0030149142
      4171.82       1.0122211    0.0030072473
      4175.99       1.0220822    0.0029998954
      4180.17       1.0309566    0.0029924131
      4184.35       1.0392917    0.0029844534
      4188.54       1.0496403    0.0029767512
      4192.72       1.0589965    0.0029692970
      4196.92       1.0668709    0.0029620666
      4201.11       1.0734528    0.0029546851
      4205.31       1.0817890    0.0029468890
      4209.52       1.0886859    0.0029392887
      4213.73       1.0953780    0.0029319018
      4217.94       1.1007431    0.0028993562
      4222.16       1.1055950    0.0028914970
      4226.38       1.1083194    0.0028838201
      4230.61       1.1101153    0.0029023225
      4234.84       1.1140966    0.0028949434
      4239.08       1.1193512    0.0028632788
      4243.32       1.1229543    0.0028554854
      4247.56       1.1263307    0.0028478741
      4251.81       1.1319504    0.0028404434
      4256.06       1.1387798    0.0028331026
      4260.32       1.1450558    0.0028282681
      4264.58       1.1501482    0.0028205196
      4268.84       1.1566735    0.0028129155
      4273.11       1.1623061    0.0028054503
      4277.38       1.1675019    0.0027981167
      4281.66       1.1724997    0.0027908546
      4285.94       1.1776346    0.0027600160
      4290.23       1.1806352    0.0027530604
      4294.52       1.1835144    0.0027714456
      4298.81       1.1875114    0.0027640786
      4303.11       1.1884500    0.0027568375
      4307.42       1.1876313    0.0027497064
      4311.72       1.1857415    0.0027192830
      4316.04       1.1831791    0.0027123957
      4320.35       1.1803834    0.0027055937
      4324.67       1.1754741    0.0026988654
      4329.00       1.1707363    0.0026922054
      4333.33       1.1664144    0.0026856177
      4337.66       1.1639707    0.0026790892
      4342.00       1.1624240    0.0026726220
      4346.34       1.1613238    0.0026660561
      4350.69       1.1632824    0.0026592973
      4355.04       1.1657398    0.0026526128
      4359.39       1.1694612    0.0026460003
      4363.75       1.1767225    0.0026394631
      4368.12       1.1842243    0.0026329506
      4372.48       1.1938564    0.0026265384
      4376.86       1.2057786    0.0026201455
      4381.23       1.2166904    0.0025923390
      4385.61       1.2250277    0.0025857918
      4390.00       1.2334901    0.0025792958
      4394.39       1.2406620    0.0025728510
      4398.79       1.2472577    0.0025664577
      4403.18       1.2545001    0.0025600586
      4407.59       1.2598127    0.0025537287
      4412.00       1.2652153    0.0025474609
      4416.41       1.2731335    0.0025412462
      4420.82       1.2823604    0.0025350740
      4425.25       1.2957009    0.0025289400
      4429.67       1.3069467    0.0025228377
      4434.10       1.3205763    0.0024959900
      4438.54       1.3330453    0.0024899894
      4442.97       1.3472668    0.0024840080
      4447.42       1.3643551    0.0024780476
      4451.86       1.3794450    0.0024721102
      4456.32       1.3952428    0.0024661892
      4460.77       1.4100875    0.0024602883
      4465.24       1.4237312    0.0024544112
      4469.70       1.4383417    0.0024485611
      4474.17       1.4520327    0.0024427354
      4478.65       1.4634917    0.0024369393
      4483.12       1.4746625    0.0024311781
      4487.61       1.4850009    0.0024254610
      4492.09       1.4941315    0.0024197351
      4496.59       1.5021171    0.0024140316
      4501.08       1.5097414    0.0024083527
      4505.58       1.5160353    0.0024026910
      4510.09       1.5246850    0.0023970509
      4514.60       1.5317914    0.0023914324
      4519.12       1.5399170    0.0023858126
      4523.63       1.5468711    0.0023802379
      4528.16       1.5536140    0.0023746956
      4532.69       1.5587805    0.0023691852
      4537.22       1.5616405    0.0023637067
      4541.76       1.5645486    0.0023582507
      4546.30       1.5665403    0.0023528179
      4550.85       1.5672548    0.0023474091
      4555.40       1.5683874    0.0023224627
      4559.95       1.5658893    0.0023171581
      4564.51       1.5618456    0.0023118676
      4569.08       1.5583394    0.0023066038
      4573.65       1.5535891    0.0023013703
      4578.22       1.5505459    0.0022961675
      4582.80       1.5475621    0.0022910020
      4587.38       1.5437485    0.0022858785
      4591.97       1.5405927    0.0022808008
      4596.56       1.5370397    0.0022757747
      4601.16       1.5348146    0.0022708063
      4605.76       1.5321756    0.0022469016
      4610.37       1.5264284    0.0022418128
      4614.98       1.5194190    0.0022367598
      4619.59       1.5115858    0.0022317491
      4624.21       1.5032633    0.0022267849
      4628.84       1.4907356    0.0022218297
      4633.47       1.4769396    0.0022169431
      4638.10       1.4617459    0.0022121226
      4642.74       1.4451112    0.0022073658
      4647.38       1.4238838    0.0022024421
      4652.03       1.4035702    0.0021974883
      4656.68       1.3842178    0.0021925890
      4661.34       1.3650599    0.0021877460
      4666.00       1.3477839    0.0021829540
      4670.67       1.3294631    0.0021782200
      4675.33       1.3125556    0.0021735472
      4680.01       1.2981840    0.0021514458
      4684.69       1.2840911    0.0021469411
      4689.38       1.2746699    0.0021425060
      4694.07       1.2658772    0.0021381450
      4698.76       1.2573895    0.0021500537
      4703.46       1.2496447    0.0021454151
      4708.16       1.2443701    0.0021236082
      4712.87       1.2394041    0.0021191952
      4717.58       1.2328167    0.0021148784
      4722.30       1.2284823    0.0021106373
      4727.03       1.2234993    0.0021064771
      4731.75       1.2165984    0.0020848849
      4736.48       1.2086995    0.0020805130
      4741.22       1.2019752    0.0020924643
      4745.96       1.1945053    0.0020882335
      4750.71       1.1868096    0.0020841198
      4755.46       1.1796037    0.0020632380
      4760.22       1.1747729    0.0020589113
      4764.97       1.1716921    0.0020546938
      4769.74       1.1698198    0.0020505841
      4774.51       1.1694276    0.0020626134
      4779.29       1.1710338    0.0020422017
      4784.07       1.1724878    0.0020379232
      4788.85       1.1756049    0.0020337619
      4793.64       1.1784008    0.0020297186
      4798.43       1.1836423    0.0020099868
      4803.23       1.1889353    0.0020215244
      4808.03       1.1931160    0.0020173218
      4812.84       1.1989750    0.0020132567
      4817.66       1.2019099    0.0019936894
      4822.48       1.2052765    0.0019899517
      4827.30       1.2084800    0.0020013312
      4832.12       1.2123369    0.0019973168
      4836.96       1.2136258    0.0019779013
      4841.79       1.2171958    0.0019742027
      4846.63       1.2226010    0.0019706597
      4851.48       1.2288537    0.0019817189
      4856.33       1.2337510    0.0019624412
      4861.19       1.2389347    0.0019588188
      4866.05       1.2439260    0.0019553405
      4870.92       1.2475116    0.0019520497
      4875.79       1.2531728    0.0019473646
      4880.66       1.2571543    0.0019438246
      4885.55       1.2602831    0.0019404702
      4890.43       1.2629799    0.0019216743
      4895.32       1.2647216    0.0019326782
      4900.22       1.2663767    0.0019292511
      4905.12       1.2668521    0.0019109191
      4910.02       1.2668562    0.0019072582
      4914.94       1.2676998    0.0019037939
      4919.85       1.2689132    0.0019150209
      4924.77       1.2713834    0.0018966597
      4929.70       1.2749608    0.0018931556
      4934.62       1.2808208    0.0019042684
      4939.56       1.2871303    0.0018862892
      4944.50       1.2928717    0.0018827767
      4949.44       1.2978294    0.0018794971
      4954.39       1.3026253    0.0018761202
      4959.35       1.3068038    0.0018726194
      4964.31       1.3121342    0.0018693343
      4969.27       1.3167005    0.0018522117
      4974.24       1.3197635    0.0018626096
      4979.22       1.3226680    0.0018453197
      4984.20       1.3255127    0.0018423446
      4989.18       1.3282201    0.0018527895
      4994.17       1.3301679    0.0018356702
      4999.16       1.3336770    0.0018327632
      5004.16       1.3372934    0.0018431832
      5009.17       1.3411837    0.0018261970
      5014.18       1.3460645    0.0018233598
      5019.19       1.3521419    0.0018065246
      5024.21       1.3587176    0.0018168623
      5029.23       1.3660263    0.0018141158
      5034.26       1.3732546    0.0017973337
      5039.30       1.3814667    0.0018077273
      5044.34       1.3887546    0.0018051039
      5049.39       1.3954133    0.0017883105
      5054.43       1.4040135    0.0017987836
      5059.49       1.4122493    0.0017824194
      5064.55       1.4209551    0.0017795157
      5069.61       1.4294760    0.0017767389
      5074.68       1.4387530    0.0017736990
      5079.76       1.4490564    0.0017840858
      5084.84       1.4585249    0.0017680306
      5089.92       1.4683791    0.0017651371
      5095.01       1.4795193    0.0017625090
      5100.11       1.4890109    0.0017595031
      5105.21       1.4972372    0.0017440390
      5110.31       1.5058560    0.0017540315
      5115.42       1.5150775    0.0017512732
      5120.54       1.5233874    0.0017361395
      5125.66       1.5321420    0.0017458248
      5130.79       1.5413661    0.0017306316
      5135.92       1.5502797    0.0017405110
      5141.05       1.5592934    0.0017252325
      5146.20       1.5679208    0.0017230501
      5151.34       1.5768149    0.0017199602
      5156.49       1.5853836    0.0017176915
      5161.65       1.5950590    0.0017147521
      5166.81       1.6032134    0.0017124306
      5171.98       1.6116938    0.0017096572
      5177.15       1.6193558    0.0017072929
      5182.33       1.6266827    0.0016924564
      5187.51       1.6343624    0.0017022974
      5192.70       1.6409530    0.0016875914
      5197.89       1.6464214    0.0016973501
      5203.09       1.6497788    0.0016827528
      5208.29       1.6535861    0.0016924505
      5213.50       1.6553308    0.0016779836
      5218.72       1.6572171    0.0016755537
      5223.93       1.6609325    0.0016733287
      5229.16       1.6643806    0.0016709091
      5234.39       1.6670523    0.0016687153
      5239.62       1.6700978    0.0016663077
      5244.86       1.6737980    0.0016641340
      5250.11       1.6759117    0.0016617486
      5255.36       1.6787351    0.0016596246
      5260.61       1.6811268    0.0016572698
      5265.87       1.6831728    0.0016551396
      5271.14       1.6846990    0.0016411660
      5276.41       1.6852318    0.0016506846
      5281.69       1.6856243    0.0016368329
      5286.97       1.6857350    0.0016463245
      5292.26       1.6837537    0.0016325885
      5297.55       1.6808501    0.0016420362
      5302.85       1.6771059    0.0016284386
      5308.15       1.6740295    0.0016262793
      5313.46       1.6710367    0.0016243406
      5318.77       1.6685945    0.0016221211
      5324.09       1.6676750    0.0016203245
      5329.42       1.6662704    0.0016180820
      5334.75       1.6652550    0.0016164346
      5340.08       1.6657740    0.0016141311
      5345.42       1.6657419    0.0016008978
      5350.77       1.6643854    0.0016102719
      5356.12       1.6633208    0.0015969854
      5361.48       1.6618551    0.0016065138
      5366.83       1.6579425    0.0015931568
      5372.20       1.6529714    0.0015913532
      5377.58       1.6475296    0.0015894223
      5382.95       1.6410065    0.0015875075
      5388.34       1.6341444    0.0015858842
      5393.72       1.6252217    0.0015837754
      5399.12       1.6157020    0.0015820553
      5404.52       1.6069810    0.0015693657
      5409.92       1.5975106    0.0015783440
      5415.33       1.5879323    0.0015659338
      5420.75       1.5779949    0.0015747921
      5426.17       1.5689379    0.0015730971
      5431.60       1.5588795    0.0015606114
      5437.03       1.5486877    0.0015695389
      5442.47       1.5375060    0.0015573722
      5447.91       1.5258482    0.0015554429
      5453.36       1.5140984    0.0015644483
      5458.81       1.5011543    0.0015522803
      5464.27       1.4890961    0.0015504554
      5469.73       1.4757077    0.0015382594
      5475.20       1.4638007    0.0015473114
      5480.68       1.4531512    0.0015455548
      5486.16       1.4423427    0.0015334336
      5491.65       1.4316784    0.0015424686
      5497.14       1.4210474    0.0015407282
      5502.64       1.4120576    0.0015286733
      5508.14       1.4035120    0.0015377255
      5513.65       1.3944247    0.0015360266
      5519.16       1.3864358    0.0015240278
      5524.68       1.3777259    0.0015226619
      5530.20       1.3693421    0.0015209975
      5535.73       1.3607077    0.0015194964
      5541.27       1.3516103    0.0015181227
      5546.81       1.3411867    0.0015064909
      5552.36       1.3319746    0.0015150397
      5557.91       1.3216700    0.0015136582
      5563.47       1.3114090    0.0015022230
      5569.04       1.3009616    0.0015007031
      5574.60       1.2892314    0.0015093297
      5580.18       1.2796986    0.0015080504
      5585.76       1.2696721    0.0014965642
      5591.35       1.2585595    0.0014951266
      5596.94       1.2483778    0.0015037756
      5602.53       1.2384601    0.0014925596
      5608.14       1.2283672    0.0014910629
      5613.75       1.2184409    0.0014896722
      5619.36       1.2081606    0.0014784710
      5624.98       1.1992677    0.0014871571
      5630.60       1.1893082    0.0014857034
      5636.23       1.1807382    0.0014843504
      5641.87       1.1724547    0.0014732128
      5647.51       1.1642020    0.0014720490
      5653.16       1.1565282    0.0014805292
      5658.82       1.1504043    0.0014792061
      5664.47       1.1443140    0.0014680851
      5670.14       1.1385642    0.0014669202
      5675.81       1.1336109    0.0014658152
      5681.48       1.1305554    0.0014742205
      5687.17       1.1303810    0.0014631364
      5692.85       1.1300226    0.0014619616
      5698.55       1.1308043    0.0014608291
      5704.25       1.1324883    0.0014597393
