# starting wavelength =        3553.2100
# ending wavelength =        8667.0900
# O2 telluric scale =        0
# O2 telluric shift =        0
# H2O telluric scale =        0
# H2O telluric shift =        0
      3555.25      0.63244874     0.013712377
      3558.80      0.60916923     0.011231265
      3562.36      0.58645521    0.0096510681
      3565.92      0.56443249    0.0084309599
      3569.49      0.54302259    0.0074815829
      3573.06      0.52464852    0.0069283550
      3576.64      0.51148677    0.0063155192
      3580.21      0.49959284    0.0058377202
      3583.79      0.49113374    0.0053739503
      3587.38      0.48649167    0.0051055104
      3590.96      0.48522501    0.0048915208
      3594.55      0.48885250    0.0047173264
      3598.15      0.48999478    0.0046170908
      3601.75      0.49475770    0.0044915088
      3605.35      0.50064693    0.0043843248
      3608.96      0.50950464    0.0042915883
      3612.56      0.51428363    0.0042310214
      3616.18      0.52029573    0.0041622932
      3619.79      0.52803411    0.0041005058
      3623.41      0.53773320    0.0041027929
      3627.04      0.54560726    0.0041338949
      3630.66      0.55544269    0.0041363540
      3634.29      0.56706111    0.0041389775
      3637.93      0.58103592    0.0041416616
      3641.57      0.59158353    0.0041732905
      3645.21      0.60383896    0.0041754644
      3648.86      0.61594252    0.0041776857
      3652.50      0.62349820    0.0041477311
      3656.16      0.63190632    0.0042112083
      3659.81      0.63765598    0.0042818303
      3663.47      0.64406877    0.0043610310
      3667.14      0.64723353    0.0044508723
      3670.80      0.64547920    0.0045539797
      3674.48      0.64110407    0.0046745755
      3678.15      0.63199664    0.0044912956
      3681.83      0.62207471    0.0043163539
      3685.51      0.61238091    0.0042940890
      3689.20      0.60378650    0.0043621494
      3692.88      0.59309420    0.0044206900
      3696.58      0.58194624    0.0045032562
      3700.27      0.57250653    0.0046020022
      3703.98      0.56446291    0.0047384925
      3707.68      0.55317757    0.0048529294
      3711.39      0.54161687    0.0049701153
      3715.10      0.53216755    0.0050838786
      3718.81      0.52254370    0.0051871990
      3722.53      0.51520663    0.0053398855
      3726.26      0.50273044    0.0054107213
      3729.98      0.49105663    0.0054443580
      3733.71      0.48041245    0.0054096825
      3737.45      0.46939002    0.0053455307
      3741.18      0.46183655    0.0053104922
      3744.93      0.46031587    0.0051999934
      3748.67      0.45733160    0.0050778190
      3752.42      0.45691518    0.0049522276
      3756.17      0.46014240    0.0048304123
      3759.93      0.46310207    0.0047547223
      3763.69      0.46800640    0.0046569004
      3767.45      0.47598344    0.0045853175
      3771.22      0.48675288    0.0045575881
      3774.99      0.49814622    0.0046288028
      3778.77      0.51077637    0.0051226174
      3782.54      0.52482427    0.0049561508
      3786.33      0.53911301    0.0048196195
      3790.11      0.55545202    0.0047052665
      3793.90      0.57227433    0.0046077104
      3797.70      0.58706080    0.0045602013
      3801.50      0.60480874    0.0045619760
      3805.30      0.62291629    0.0045636667
      3809.10      0.64101130    0.0046052480
      3812.91      0.65959383    0.0046955599
      3816.73      0.67874881    0.0046629935
      3820.54      0.69798717    0.0046669493
      3824.36      0.71731033    0.0046188241
      3828.19      0.73551292    0.0046144330
      3832.02      0.75246423    0.0047254801
      3835.85      0.76885965    0.0048594158
      3839.68      0.78226743    0.0048288123
      3843.52      0.79555761    0.0048813198
      3847.37      0.81022426    0.0048832284
      3851.22      0.82269616    0.0049426057
      3855.07      0.83788796    0.0050736259
      3858.92      0.84801783    0.0051881932
      3862.78      0.86002751    0.0053080972
      3866.64      0.87096187    0.0054705757
      3870.51      0.88054848    0.0055798733
      3874.38      0.89456202    0.0057504949
      3878.26      0.90870194    0.0057934829
      3882.13      0.92096276    0.0057967964
      3886.02      0.93083881    0.0056598025
      3889.90      0.94368133    0.0055715882
      3893.79      0.95571580    0.0055793365
      3897.69      0.96586790    0.0054507305
      3901.59      0.97743863    0.0053255643
      3905.49      0.98847364    0.0052175898
      3909.39      0.99858216    0.0051462724
      3913.30       1.0096771    0.0051526746
      3917.22       1.0182938    0.0051910790
      3921.13       1.0237822    0.0050972951
      3925.06       1.0289788    0.0051375619
      3928.98       1.0341308    0.0050246519
      3932.91       1.0372625    0.0052089245
      3936.84       1.0378992    0.0051378352
      3940.78       1.0358108    0.0051046566
      3944.72       1.0331459    0.0051294905
      3948.67       1.0281756    0.0052253936
      3952.61       1.0222331    0.0053795714
      3956.57       1.0125594    0.0055394239
      3960.52       1.0018216    0.0056332546
      3964.48      0.99049811    0.0057046724
      3968.45      0.98163782    0.0057465739
      3972.42      0.96946143    0.0057299952
      3976.39      0.96116398    0.0056746819
      3980.37      0.95039667    0.0055926630
      3984.35      0.94063477    0.0055374246
      3988.33      0.93545552    0.0054889691
      3992.32      0.93230601    0.0053707915
      3996.31      0.93050108    0.0052689626
      4000.31      0.92974533    0.0051992838
      4004.31      0.92987458    0.0051903751
      4008.31      0.93184616    0.0056600746
      4012.32      0.93070042    0.0054632419
      4016.33      0.93014705    0.0053088898
      4020.35      0.92919410    0.0052439104
      4024.37      0.92888788    0.0053729098
      4028.40      0.92769718    0.0055705026
      4032.42      0.92223729    0.0055013076
      4036.46      0.91768873    0.0053845342
      4040.50      0.91400307    0.0053976902
      4044.54      0.91009282    0.0054686485
      4048.58      0.90858974    0.0056501257
      4052.63      0.90494408    0.0057742655
      4056.68      0.90112650    0.0060226770
      4060.74      0.89689037    0.0063437049
      4064.80      0.89140901    0.0067740915
      4068.86      0.89032878    0.0073781217
      4072.93      0.89292679    0.0064943365
      4077.01      0.88877958    0.0063956447
      4081.08      0.88415109    0.0065668263
      4085.17      0.87743934    0.0067505200
      4089.25      0.86904181    0.0069151853
      4093.34      0.86226243    0.0070445870
      4097.43      0.85691006    0.0074281955
      4101.53      0.84710247    0.0074807053
      4105.63      0.83276654    0.0077940152
      4109.74      0.82684545    0.0069970357
      4113.85      0.81963249    0.0064296289
      4117.96      0.81617972    0.0061580514
      4122.08      0.81388066    0.0059043626
      4126.20      0.81174985    0.0056959634
      4130.33      0.81299891    0.0055212349
      4134.46      0.81511035    0.0064750119
      4138.59      0.81628778    0.0060763051
      4142.73      0.81793195    0.0057992984
      4146.88      0.82072141    0.0055959845
      4151.02      0.82220484    0.0054393890
      4155.18      0.82283525    0.0054386859
      4159.33      0.82397947    0.0054382781
      4163.49      0.82492698    0.0053772116
      4167.65      0.82615660    0.0053770338
      4171.82      0.82940083    0.0053772594
      4175.99      0.83138434    0.0053776311
      4180.17      0.83159003    0.0054411940
      4184.35      0.82999148    0.0054400595
      4188.54      0.82955316    0.0054389309
      4192.72      0.82671686    0.0053774423
      4196.92      0.82590634    0.0053771098
      4201.11      0.82651580    0.0053769656
      4205.31      0.82287241    0.0053771618
      4209.52      0.82451109    0.0053775895
      4213.73      0.82477867    0.0054395720
      4217.94      0.82704131    0.0053774454
      4222.16      0.82614973    0.0053766407
      4226.38      0.82738471    0.0053760820
      4230.61      0.82953803    0.0053759312
      4234.84      0.83061215    0.0053760816
      4239.08      0.83618000    0.0053765670
      4243.32      0.84146774    0.0053124905
      4247.56      0.84511707    0.0053755419
      4251.81      0.84832276    0.0053746683
      4256.06      0.84968072    0.0053743641
      4260.32      0.85139053    0.0053744132
      4264.58      0.84899013    0.0053124354
      4268.84      0.84745413    0.0053107371
      4273.11      0.84320736    0.0053093684
      4277.38      0.83912836    0.0053726589
      4281.66      0.83456290    0.0053722531
      4285.94      0.82416316    0.0053116994
      4290.23      0.81874465    0.0053096059
      4294.52      0.81166304    0.0053079321
      4298.81      0.79700174    0.0053066423
      4303.11      0.78963424    0.0053700495
      4307.42      0.78065039    0.0053107525
      4311.72      0.76980018    0.0053076269
      4316.04      0.75907553    0.0053057292
      4320.35      0.75272776    0.0053043152
      4324.67      0.74216397    0.0052466462
      4329.00      0.73395256    0.0053075497
      4333.33      0.72896023    0.0053048509
      4337.66      0.72496738    0.0053027638
      4342.00      0.72119056    0.0053013626
      4346.34      0.71903003    0.0052438347
      4350.69      0.71683465    0.0053040693
      4355.04      0.72037595    0.0053013277
      4359.39      0.72694323    0.0052993325
      4363.75      0.73322824    0.0052412705
      4368.12      0.74074290    0.0052406052
      4372.48      0.75195948    0.0052996750
      4376.86      0.76406808    0.0052972211
      4381.23      0.77723962    0.0052386734
      4385.61      0.79667356    0.0052377159
      4390.00      0.80647401    0.0052375589
      4394.39      0.81680382    0.0052945082
      4398.79      0.82966106    0.0052358161
      4403.18      0.84190946    0.0052347466
      4407.59      0.85574071    0.0052342734
      4412.00      0.87369721    0.0052346745
      4416.41      0.88964858    0.0052325908
      4420.82      0.90412541    0.0052312686
      4425.25      0.91795968    0.0052308544
      4429.67      0.92979345    0.0051718095
      4434.10      0.94322363    0.0052292517
      4438.54      0.95971900    0.0052278209
      4442.97      0.97611888    0.0052273873
      4447.42      0.99219630    0.0051679934
      4451.86       1.0106490    0.0052252607
      4456.32       1.0299623    0.0052240924
      4460.77       1.0483689    0.0051665631
      4465.24       1.0677820    0.0051637349
      4469.70       1.0876256    0.0052212134
      4474.17       1.1079248    0.0052202999
      4478.65       1.1308582    0.0051618637
      4483.12       1.1533495    0.0051592302
      4487.61       1.1763917    0.0052170853
      4492.09       1.2051578    0.0051599908
      4496.59       1.2344675    0.0051568299
      4501.08       1.2613301    0.0051547018
      4505.58       1.2889561    0.0051580473
      4510.09       1.3118373    0.0051543233
      4514.60       1.3352467    0.0051517111
      4519.12       1.3581033    0.0051559484
      4523.63       1.3788865    0.0051517306
      4528.16       1.3977636    0.0051486500
      4532.69       1.4126295    0.0050938248
      4537.22       1.4289010    0.0051489551
      4541.76       1.4425211    0.0051455053
      4546.30       1.4534900    0.0050903896
      4550.85       1.4634033    0.0051459264
      4555.40       1.4712379    0.0051422018
      4559.95       1.4786006    0.0050868939
      4564.51       1.4812129    0.0050857838
      4569.08       1.4795363    0.0051387355
      4573.65       1.4776062    0.0050832058
      4578.22       1.4748387    0.0050820732
      4582.80       1.4673583    0.0051349810
      4587.38       1.4537338    0.0050794343
      4591.97       1.4381242    0.0050782256
      4596.56       1.4193595    0.0051310387
      4601.16       1.3988983    0.0050755832
      4605.76       1.3750903    0.0050743916
      4610.37       1.3496857    0.0051268783
      4614.98       1.3243970    0.0050714482
      4619.59       1.3002118    0.0050704528
      4624.21       1.2792435    0.0050696492
      4628.84       1.2557132    0.0050673985
      4633.47       1.2332088    0.0050666560
      4638.10       1.2120527    0.0050651914
      4642.74       1.1922273    0.0050632357
      4647.38       1.1760188    0.0050088107
      4652.03       1.1572051    0.0050606381
      4656.68       1.1380496    0.0050590217
      4661.34       1.1177741    0.0050038340
      4666.00       1.0974957    0.0050560979
      4670.67       1.0722576    0.0050027585
      4675.33       1.0498819    0.0049989397
      4680.01       1.0288169    0.0050516718
      4684.69       1.0075091    0.0049973237
      4689.38      0.98711800    0.0049940600
      4694.07      0.96689727    0.0049960959
      4698.76      0.94972373    0.0049919397
      4703.46      0.93683623    0.0049894711
      4708.16      0.92580566    0.0049900840
      4712.87      0.91666756    0.0049866194
      4717.58      0.91151927    0.0049887033
      4722.30      0.91143205    0.0049843284
      4727.03      0.91554925    0.0049323767
      4731.75      0.92261973    0.0049822170
      4736.48      0.93130088    0.0049788952
      4741.22      0.94255526    0.0049806352
      4745.96      0.94757458    0.0049762460
      4750.71      0.95253621    0.0049246631
      4755.46      0.95508230    0.0049739947
      4760.22      0.95088483    0.0049216510
      4764.97      0.94906285    0.0049204803
      4769.74      0.94575951    0.0049678502
      4774.51      0.93852906    0.0049169016
      4779.29      0.93134791    0.0049651574
      4784.07      0.92471408    0.0049134456
      4788.85      0.91722210    0.0049624383
      4793.64      0.91234259    0.0049102293
      4798.43      0.90979923    0.0049093421
      4803.23      0.90617528    0.0049071291
      4808.03      0.90792992    0.0049056532
      4812.84      0.91487680    0.0049040967
      4817.66      0.92490925    0.0049022108
      4822.48      0.93996180    0.0048500980
      4827.30      0.95790241    0.0048986226
      4832.12      0.97794951    0.0048471411
      4836.96       1.0003045    0.0048952156
      4841.79       1.0248084    0.0048441839
      4846.63       1.0480504    0.0048918115
      4851.48       1.0711076    0.0048411751
      4856.33       1.0970191    0.0048885247
      4861.19       1.1194107    0.0048381291
      4866.05       1.1372168    0.0048343999
      4870.92       1.1533699    0.0048350965
      4875.79       1.1639792    0.0048311160
      4880.66       1.1723590    0.0048318500
      4885.55       1.1722576    0.0048276862
      4890.43       1.1652153    0.0048286112
      4895.32       1.1534167    0.0048243339
      4900.22       1.1349591    0.0048252857
      4905.12       1.1165677    0.0048207885
      4910.02       1.0905955    0.0048217821
      4914.94       1.0653840    0.0048173179
      4919.85       1.0360099    0.0048182550
      4924.77       1.0103304    0.0048138327
      4929.70      0.98300199    0.0048146904
      4934.62      0.95986959    0.0048102248
      4939.56      0.93571472    0.0048109329
      4944.50      0.91599617    0.0048066158
      4949.44      0.89934110    0.0048071020
      4954.39      0.88759507    0.0048030104
      4959.35      0.87649133    0.0048032654
      4964.31      0.86934658    0.0047535595
      4969.27      0.86614544    0.0047993234
      4974.24      0.86857751    0.0047499753
      4979.22      0.87059375    0.0047953828
      4984.20      0.87562342    0.0047464659
      4989.18      0.88166154    0.0047913822
      4994.17      0.88805871    0.0047428774
      4999.16      0.89597223    0.0047416987
      5004.16      0.90371824    0.0047394959
      5009.17      0.91278377    0.0047379208
      5014.18      0.92192078    0.0047361444
      5019.19      0.92989601    0.0047340284
      5024.21      0.93784766    0.0047329287
      5029.23      0.94460555    0.0047303914
      5034.26      0.95083783    0.0046825093
      5039.30      0.95698053    0.0047268541
      5044.34      0.96482148    0.0046785143
      5049.39      0.97088214    0.0047234895
      5054.43      0.97513864    0.0046745852
      5059.49      0.97987178    0.0046744719
      5064.55      0.98505381    0.0047179271
      5069.61      0.99139054    0.0046701649
      5074.68      0.99846763    0.0047143868
      5079.76       1.0046539    0.0046659490
      5084.84       1.0120200    0.0046661512
      5089.92       1.0208067    0.0046620253
      5095.01       1.0310812    0.0046615534
      5100.11       1.0413474    0.0047053860
      5105.21       1.0531150    0.0046572084
      5110.31       1.0656332    0.0046574724
      5115.42       1.0782445    0.0046532280
      5120.54       1.0913353    0.0046527513
      5125.66       1.1050909    0.0046069797
      5130.79       1.1195512    0.0046484064
      5135.92       1.1344387    0.0046483852
      5141.05       1.1516510    0.0046016749
      5146.20       1.1656871    0.0046435644
      5151.34       1.1809062    0.0045983261
      5156.49       1.1981259    0.0046393801
      5161.65       1.2153034    0.0046389777
      5166.81       1.2358006    0.0045930113
      5171.98       1.2547986    0.0046343845
      5177.15       1.2736061    0.0045900396
      5182.33       1.2918754    0.0045879530
      5187.51       1.3130449    0.0046295941
      5192.70       1.3307783    0.0045846586
      5197.89       1.3479882    0.0045827962
      5203.09       1.3660336    0.0045822394
      5208.29       1.3837173    0.0045795038
      5213.50       1.4017599    0.0045778002
      5218.72       1.4187574    0.0045769169
      5223.93       1.4344470    0.0045743197
      5229.16       1.4501110    0.0045727507
      5234.39       1.4637417    0.0045283669
      5239.62       1.4793501    0.0045693906
      5244.86       1.4913862    0.0045678309
      5250.11       1.5035523    0.0045233313
      5255.36       1.5166308    0.0045643957
      5260.61       1.5251254    0.0045190841
      5265.87       1.5332960    0.0045184111
      5271.14       1.5366917    0.0045595876
      5276.41       1.5388632    0.0045141239
      5281.69       1.5378934    0.0045132940
      5286.97       1.5380479    0.0045133052
      5292.26       1.5368079    0.0045093634
      5297.55       1.5353474    0.0045083035
      5302.85       1.5365490    0.0045079319
      5308.15       1.5381524    0.0044645947
      5313.46       1.5384546    0.0045039332
      5318.77       1.5378802    0.0045027669
      5324.09       1.5383170    0.0044601461
      5329.42       1.5373009    0.0044984277
      5334.75       1.5362909    0.0044974868
      5340.08       1.5369941    0.0044972939
      5345.42       1.5388203    0.0044539510
      5350.77       1.5438516    0.0044926276
      5356.12       1.5499784    0.0044920366
      5361.48       1.5552525    0.0044497144
      5366.83       1.5634332    0.0044480708
      5372.20       1.5714703    0.0044868786
      5377.58       1.5811888    0.0044458253
      5382.95       1.5932807    0.0044438378
      5388.34       1.6095373    0.0044423626
      5393.72       1.6296455    0.0044415196
      5399.12       1.6475643    0.0044400440
      5404.52       1.6698436    0.0044381839
      5409.92       1.6902409    0.0044367957
      5415.33       1.7047775    0.0043948590
      5420.75       1.7145798    0.0044345332
      5426.17       1.7272635    0.0044327660
      5431.60       1.7328809    0.0044314278
      5437.03       1.7344358    0.0043895115
      5442.47       1.7294736    0.0043889639
      5447.91       1.7217407    0.0044275572
      5453.36       1.7066276    0.0044260976
      5458.81       1.6862193    0.0043842116
