# starting wavelength =        4047.8600
# ending wavelength =        9029.7300
# O2 telluric scale =        0
# O2 telluric shift =        0
# H2O telluric scale =        0
# H2O telluric shift =        0
      4048.58       1.9703711      0.21699292
      4052.63       2.0077734      0.19869725
      4056.68       2.0422624      0.15695977
      4060.74       2.0881498      0.14667434
      4064.80       2.1194119      0.12074446
      4068.86       2.1472548      0.10825683
      4072.93       2.1789134      0.10361453
      4077.01       2.2226677     0.091215019
      4081.08       2.2286769     0.088292655
      4085.17       2.2363773     0.080842752
      4089.25       2.2722263     0.078790941
      4093.34       2.3099531     0.074189254
      4097.43       2.3266224     0.072598277
      4101.53       2.3453075     0.070964300
      4105.63       2.3600086     0.068678041
      4109.74       2.3774155     0.067396812
      4113.85       2.3859040     0.065797956
      4117.96       2.4010164     0.064644946
      4122.08       2.4212306     0.063483596
      4126.20       2.4404572     0.063237900
      4130.33       2.4114398     0.062993931
      4134.46       2.4458206     0.063743162
      4138.59       2.4667409     0.063499080
      4142.73       2.4132492     0.063256541
      4146.88       2.4119856     0.063016622
      4151.02       2.4373851     0.062777715
      4155.18       2.4397710     0.062539909
      4159.33       2.4588982     0.062302979
      4163.49       2.4430202     0.062066902
      4167.65       2.4265322     0.062886720
      4171.82       2.4013419     0.062635217
      4175.99       2.3544703     0.062385389
      4180.17       2.3327562     0.062137151
      4184.35       2.3373696     0.061890496
      4188.54       2.3405441     0.061645311
      4192.72       2.3339186     0.061401636
      4196.92       2.3332332     0.061159384
      4201.11       2.3356529     0.060918491
      4205.31       2.3363690     0.060678906
      4209.52       2.3088474     0.061444944
      4213.73       2.2780857     0.061203930
      4217.94       2.2568243     0.060965582
      4222.16       2.2309440     0.060727272
      4226.38       2.2130689     0.060488209
      4230.61       2.1966894     0.060253714
      4234.84       2.1971388     0.060018750
      4239.08       2.1820909     0.059784827
      4243.32       2.1650292     0.059551770
      4247.56       2.1548859     0.061274746
      4251.81       2.1443804     0.061036731
      4256.06       2.1175520     0.060799465
      4260.32       2.0769369     0.060562981
      4264.58       2.0335329     0.060327404
      4268.84       2.0020849     0.060092435
      4273.11       1.9807117     0.059858243
      4277.38       1.9708583     0.059624455
      4281.66       1.9604243     0.059392376
      4285.94       1.9416084     0.059161902
      4290.23       1.9351853     0.058931685
      4294.52       1.9270902     0.059789149
      4298.81       1.9196388     0.059548015
      4303.11       1.9270571     0.059307786
      4307.42       1.9229284     0.059068445
      4311.72       1.9264456     0.058830026
      4316.04       1.9419807     0.058592508
      4320.35       1.9702836     0.058355873
      4324.67       1.9892674     0.058120126
      4329.00       2.0243860     0.057885223
      4333.33       2.0565679     0.057651059
      4337.66       2.0500296     0.058440479
      4342.00       2.0606502     0.059276863
      4346.34       2.1043477     0.059037249
      4350.69       2.1378372     0.058798698
      4355.04       2.1572516     0.058562818
      4359.39       2.1960143     0.058327145
      4363.75       2.2236152     0.058091818
      4368.12       2.2295701     0.057856935
      4372.48       2.2132516     0.057622554
      4376.86       2.1773356     0.057388722
      4381.23       2.1458166     0.057155478
      4385.61       2.1193115     0.056922808
      4390.00       2.0880846     0.056690700
      4394.39       2.0442700     0.056459108
      4398.79       2.0283258     0.057337776
      4403.18       1.9499039     0.058209008
      4407.59       1.9009293     0.057971443
      4412.00       1.8448664     0.057734901
      4416.41       1.7851297     0.057499487
      4420.82       1.7259339     0.057266935
      4425.25       1.7135401     0.057034471
      4429.67       1.7159984     0.056802277
      4434.10       1.7243584     0.056570492
      4438.54       1.7290829     0.056339220
      4442.97       1.7593245     0.056108527
      4447.42       1.7900725     0.055878459
      4451.86       1.8089937     0.055649008
      4456.32       1.8898945     0.056595236
      4460.77       1.9441990     0.057557818
      4465.24       2.0183007     0.057321713
      4469.70       2.0768854     0.057086954
      4474.17       2.1020189     0.056853780
      4478.65       2.1200300     0.056621907
      4483.12       2.1305459     0.056391445
      4487.61       2.1242618     0.056162325
      4492.09       2.1050425     0.055936646
      4496.59       2.0893779     0.055711109
      4501.08       2.0567496     0.056668814
      4505.58       2.0301872     0.056422699
      4510.09       1.9721459     0.056176603
      4514.60       1.9543737     0.055930503
      4519.12       1.9695656     0.055684490
      4523.63       2.0053295     0.055441966
      4528.16       2.0093907     0.055200649
      4532.69       2.0067626     0.054960826
      4537.22       2.0263098     0.054723131
      4541.76       2.0393433     0.057160821
      4546.30       2.0872664     0.056912377
      4550.85       2.1469652     0.056665948
      4555.40       2.1692101     0.055067716
      4559.95       2.1725845     0.054834227
      4564.51       2.1697047     0.054600691
      4569.08       2.1560960     0.054367550
      4573.65       2.1375343     0.054135046
      4578.22       2.1105378     0.053903122
      4582.80       2.0832578     0.053671900
      4587.38       2.0664245     0.053444700
      4591.97       2.0489890     0.053219813
      4596.56       2.0234194     0.052997358
      4601.16       1.9877082     0.052777551
      4605.76       1.9708634     0.052560622
      4610.37       1.9384444     0.052346328
      4614.98       1.9099944     0.052134895
      4619.59       1.8809264     0.051926280
      4624.21       1.8792758     0.051722547
      4628.84       1.8972592     0.051520309
      4633.47       1.8808650     0.051319809
      4638.10       1.8564399     0.049738128
      4642.74       1.8462913     0.049513518
      4647.38       1.8358165     0.049290923
      4652.03       1.8240602     0.050237404
      4656.68       1.8046035     0.050015162
      4661.34       1.7948983     0.049796318
      4666.00       1.7986588     0.049580563
      4670.67       1.8078845     0.049368615
      4675.33       1.8191605     0.049160209
      4680.01       1.8404839     0.048955292
      4684.69       1.8454350     0.048753931
      4689.38       1.8511308     0.048558020
      4694.07       1.8520429     0.048364633
      4698.76       1.8503762     0.048173046
      4703.46       1.8798216     0.046745932
      4708.16       1.8899125     0.046525639
      4712.87       1.8797286     0.046308154
      4717.58       1.8716725     0.046095901
      4722.30       1.8469818     0.045887496
      4727.03       1.8371036     0.045683080
      4731.75       1.8267731     0.046562570
      4736.48       1.8047710     0.046361445
      4741.22       1.7884336     0.046164788
      4745.96       1.7615886     0.045972713
      4750.71       1.7414316     0.045785154
      4755.46       1.7585729     0.044508591
      4760.22       1.7536412     0.044290805
      4764.97       1.7433010     0.044076843
      4769.74       1.7451220     0.043866415
      4774.51       1.7434249     0.043659968
      4779.29       1.7505751     0.043456825
      4784.07       1.7487464     0.043260263
      4788.85       1.7435938     0.043068601
      4793.64       1.7391407     0.042881851
      4798.43       1.7297265     0.043713448
      4803.23       1.6991226     0.042545210
      4808.03       1.6900883     0.042327779
      4812.84       1.6721976     0.042117279
      4817.66       1.6481377     0.041911342
      4822.48       1.6360887     0.041710051
      4827.30       1.6379892     0.041513702
      4832.12       1.6455589     0.041322095
      4836.96       1.6467236     0.041135411
      4841.79       1.6593940     0.040953718
      4846.63       1.6982094     0.039873439
      4851.48       1.6963276     0.040630765
      4856.33       1.6857292     0.040418181
      4861.19       1.6816186     0.040212296
      4866.05       1.6838976     0.040012567
      4870.92       1.6913335     0.039819455
      4875.79       1.6911082     0.039634040
      4880.66       1.6952417     0.039454180
      4885.55       1.7040404     0.039279859
      4890.43       1.7315849     0.038244187
      4895.32       1.7468924     0.038084817
      4900.22       1.7596930     0.038766681
      4905.12       1.7681429     0.038563905
      4910.02       1.7781759     0.038369869
      4914.94       1.7961635     0.038183091
      4919.85       1.8064899     0.038004037
      4924.77       1.7968656     0.036992709
      4929.70       1.7893155     0.036832278
      4934.62       1.7780676     0.036678265
      4939.56       1.7636109     0.036530690
      4944.50       1.7200582     0.037157463
      4949.44       1.6792997     0.036968913
      4954.39       1.6352964     0.036787430
      4959.35       1.6062745     0.036612742
      4964.31       1.5812012     0.035636838
      4969.27       1.5620468     0.035480744
      4974.24       1.5613412     0.035332709
      4979.22       1.5795667     0.035191786
      4984.20       1.6122756     0.035058118
      4989.18       1.6630936     0.035597092
      4994.17       1.7076698     0.035424262
      4999.16       1.7750254     0.034478202
      5004.16       1.8330482     0.034328398
      5009.17       1.8844690     0.034185448
      5014.18       1.9199385     0.034049469
      5019.19       1.9494810     0.033920711
      5024.21       1.9894361     0.033799419
      5029.23       2.0138802     0.033518695
      5034.26       2.0197632     0.033363182
      5039.30       2.0115569     0.033215275
      5044.34       1.9874097     0.033076515
      5049.39       1.9566784     0.032945958
      5054.43       1.9295699     0.032823938
      5059.49       1.8866910     0.031900857
      5064.55       1.8300901     0.032430629
      5069.61       1.7789628     0.032285565
      5074.68       1.7320251     0.032148320
      5079.76       1.6916025     0.032019070
      5084.84       1.6617572     0.031897945
      5089.92       1.6328289     0.031018500
      5095.01       1.5991220     0.030868225
      5100.11       1.5726617     0.031382998
      5105.21       1.5498264     0.031246068
      5110.31       1.5209349     0.031118283
      5115.42       1.4960574     0.030999733
      5120.54       1.5120558     0.030154066
      5125.66       1.5187614     0.030007938
      5130.79       1.5311466     0.030510611
      5135.92       1.5536523     0.030379839
      5141.05       1.5792103     0.030257975
      5146.20       1.6046512     0.030145164
      5151.34       1.6372528     0.029320084
      5156.49       1.6614621     0.029178272
      5161.65       1.6823674     0.029045364
      5166.81       1.6946947     0.029540074
      5171.98       1.7043380     0.029423296
      5177.15       1.7022435     0.028647094
      5182.33       1.7049400     0.028503273
      5187.51       1.7012387     0.028369180
      5192.70       1.6854942     0.028244769
      5197.89       1.6529971     0.028734108
      5203.09       1.6376787     0.027999075
      5208.29       1.6246128     0.027854278
      5213.50       1.6090728     0.027719343
      5218.72       1.6074260     0.027594222
      5223.93       1.5976107     0.028068509
      5229.16       1.6036117     0.027363058
      5234.39       1.6180218     0.027216917
      5239.62       1.6264835     0.027082455
      5244.86       1.6330952     0.026958847
      5250.11       1.6458360     0.026845572
      5255.36       1.6684134     0.026742689
      5260.61       1.6768141     0.026600663
      5265.87       1.6756691     0.026469453
      5271.14       1.6728451     0.026348657
      5276.41       1.6664570     0.026238280
      5281.69       1.6622826     0.026139513
      5286.97       1.6466691     0.025998949
      5292.26       1.6361423     0.025869598
      5297.55       1.6332283     0.025751179
      5302.85       1.6254549     0.025644722
      5308.15       1.6217709     0.025545095
      5313.46       1.6045201     0.025410259
      5318.77       1.5885080     0.025287375
      5324.09       1.5680713     0.025176862
      5329.42       1.5546912     0.024564924
      5334.75       1.5549768     0.024971743
      5340.08       1.5496583     0.024843326
      5345.42       1.5352761     0.024726833
      5350.77       1.5233814     0.024118886
      5356.12       1.5084075     0.024027848
      5361.48       1.4892298     0.024409225
      5366.83       1.4744189     0.024288874
      5372.20       1.4650760     0.024181059
      5377.58       1.4603786     0.023594248
      5382.95       1.4642569     0.023512187
      5388.34       1.4582651     0.023869481
      5393.72       1.4634143     0.023759673
      5399.12       1.4704969     0.023179949
      5404.52       1.4725992     0.023096320
      5409.92       1.4840876     0.023023590
      5415.33       1.4795517     0.023348997
      5420.75       1.4780107     0.022775679
      5426.17       1.4751098     0.022690566
      5431.60       1.4798203     0.022617426
      5437.03       1.4900175     0.022948919
      5442.47       1.4675271     0.022384783
      5447.91       1.4500241     0.022301120
      5453.36       1.4286353     0.022229766
      5458.81       1.3995626     0.022564683
      5464.27       1.3819800     0.022009711
      5469.73       1.3744550     0.021927025
      5475.20       1.3706578     0.021855987
      5480.68       1.3688699     0.021796746
      5486.16       1.3707321     0.021642605
      5491.65       1.3697316     0.021561061
      5497.14       1.3787625     0.021492227
      5502.64       1.3946753     0.021435694
      5508.14       1.4169222     0.021287248
      5513.65       1.4229616     0.021210376
      5519.16       1.4279912     0.021145576
      5524.68       1.4396135     0.020622996
      5530.20       1.4511349     0.020946576
      5535.73       1.4514501     0.020872603
      5541.27       1.4433467     0.020811173
      5546.81       1.4285743     0.020293059
      5552.36       1.4103472     0.020614087
      5557.91       1.3911051     0.020544202
      5563.47       1.3844172     0.020487811
      5569.04       1.3793566     0.019973142
      5574.60       1.3596182     0.020294318
      5580.18       1.3394775     0.020231779
      5585.76       1.3270010     0.019748432
      5591.35       1.3135581     0.019667820
      5596.94       1.3052312     0.019989872
      5602.53       1.3020042     0.019932950
      5608.14       1.2941268     0.019446426
      5613.75       1.2894482     0.019371929
      5619.36       1.2869879     0.019694463
      5624.98       1.2839792     0.019234447
      5630.60       1.2808653     0.019154971
      5636.23       1.2677565     0.019469661
      5641.87       1.2731417     0.019034833
      5647.51       1.2717894     0.018950542
      5653.16       1.2726467     0.018879504
      5658.82       1.2763393     0.019198264
      5664.47       1.2879040     0.018754090
      5670.14       1.2944067     0.018678435
      5675.81       1.2941142     0.018616116
      5681.48       1.2872561     0.018564657
      5687.17       1.2843018     0.018484575
      5692.85       1.2805350     0.018419051
      5698.55       1.2708983     0.018383248
      5704.25       1.2735843     0.018301058
      5709.95       1.2653071     0.018233096
      5715.66       1.2654280     0.018179205
      5721.38       1.2765922     0.018129225
      5727.10       1.2808832     0.018059188
      5732.83       1.2834926     0.018002731
      5738.56       1.2819778     0.017965041
      5744.30       1.2807223     0.017895036
      5750.04       1.2809870     0.017842518
      5755.79       1.2872158     0.017485580
      5761.55       1.2861186     0.017771762
      5767.31       1.2890952     0.017723572
      5773.08       1.2763182     0.017370384
      5778.85       1.2664548     0.017667280
      5784.63       1.2518624     0.017616311
      5790.41       1.2331948     0.017251507
      5796.21       1.2073757     0.017536417
      5802.00       1.1774885     0.017474965
      5807.81       1.1339775     0.017106428
      5813.61       1.1045325     0.017381453
      5819.43       1.0904001     0.017315949
      5825.25       1.1092463     0.016948723
      5831.07       1.1357945     0.016915667
      5836.90       1.1699402     0.017165552
      5842.74       1.2411127     0.016797898
      5848.58       1.2968509     0.016761851
      5854.43       1.3703075     0.017003594
      5860.29       1.4489984     0.016638439
      5866.15       1.5030323     0.016602659
      5872.01       1.5642297     0.016839240
      5877.89       1.5929637     0.016477415
      5883.76       1.6072520     0.016443192
      5889.65       1.6148395     0.016378258
      5895.54       1.6161236     0.016333979
      5901.43       1.6072952     0.016303575
      5907.34       1.5618174     0.016240292
      5913.24       1.5211739     0.016201603
      5919.16       1.4662261     0.016178187
      5925.08       1.4059120     0.016119913
      5931.00       1.3701675     0.016085946
      5936.93       1.3395063     0.016067281
      5942.87       1.3229857     0.016009759
      5948.81       1.3065013     0.015980199
      5954.76       1.2985520     0.015651277
      5960.72       1.2982707     0.015908545
      5966.68       1.2857601     0.015883412
      5972.64       1.2685895     0.015553472
      5978.62       1.2517282     0.015813938
      5984.60       1.2401736     0.015793825
      5990.58       1.2299686     0.015460911
      5996.57       1.2175482     0.015724783
      6002.57       1.2152761     0.015413185
      6008.57       1.2202188     0.015666475
      6014.58       1.2129190     0.015641438
      6020.60       1.2064960     0.015326844
      6026.62       1.2007840     0.015585646
      6032.65       1.1859259     0.015567045
      6038.68       1.1842824     0.015247331
      6044.72       1.1764217     0.015511108
      6050.76       1.1747923     0.015210121
      6056.81       1.1697485     0.015173283
      6062.87       1.1574442     0.015442485
      6068.93       1.1520517     0.015135201
      6075.00       1.1485492     0.015104917
      6081.08       1.1407115     0.015106194
      6087.16       1.1375288     0.015068152
      6093.25       1.1431643     0.015336460
      6099.34       1.1371219     0.015046300
      6105.44       1.1326452     0.015020925
      6111.54       1.1261721     0.015030504
      6117.66       1.1281929     0.014992260
      6123.78       1.1335277     0.014976045
      6129.90       1.1383051     0.015001843
      6136.03       1.1524270     0.014990272
      6142.17       1.1550227     0.015052206
      6148.31       1.1523340     0.015040325
      6154.46       1.1547456     0.015045339
      6160.61       1.1501748     0.015093525
      6166.77       1.1551691     0.015081795
      6172.94       1.1550387     0.015114868
      6179.11       1.1631556     0.015078071
      6185.29       1.1591134     0.014798494
      6191.48       1.1595234     0.015027320
      6197.67       1.1622244     0.014981397
      6203.87       1.1522757     0.014956272
      6210.07       1.1445701     0.014906697
      6216.28       1.1342446     0.014632664
