# starting wavelength =        3025.0682
# ending wavelength =        7652.5900
# O2 telluric scale =        0
# O2 telluric shift =        0
# H2O telluric scale =        0
# H2O telluric shift =        0
      3026.78      0.95356912     0.095361895
      3029.80      0.91972686     0.093020594
      3032.83      0.90803240     0.090921231
      3035.87      0.89735537     0.090669319
      3038.90      0.86773948     0.088677667
      3041.94      0.85362599     0.086510916
      3044.98      0.84360439     0.086305616
      3048.03      0.85138456     0.084412726
      3051.08      0.87461150     0.082423160
      3054.13      0.87306922     0.082410341
      3057.18      0.90743716     0.080469788
      3060.24      0.90759293     0.080496947
      3063.30      0.95982703     0.078610571
      3066.36      0.98200698     0.076841213
      3069.43      0.98138841     0.076839003
      3072.50      0.96886436     0.075121606
      3075.57      0.96135952     0.073394597
      3078.65      0.96174557     0.073487540
      3081.73      0.93938974     0.071930840
      3084.81      0.95799973     0.070348956
      3087.89      0.95853894     0.070428805
      3090.98      0.99759910     0.068891221
      3094.07      0.99888359     0.069010582
      3097.17       1.0323909     0.067647286
      3100.26       1.0293318     0.066240148
      3103.36       1.0273057     0.066350777
      3106.47       1.0364687     0.064978788
      3109.58       1.0350119     0.063838655
      3112.68       1.0420625     0.063945030
      3115.80       1.0737033     0.062689307
      3118.91       1.0841042     0.061670724
      3122.03       1.0859340     0.061610613
      3125.15       1.0957731     0.060626528
      3128.28       1.1076252     0.059720725
      3131.41       1.1099116     0.059649049
      3134.54       1.1256230     0.058775082
      3137.67       1.1297211     0.057790272
      3140.81       1.1366037     0.057892415
      3143.95       1.1287931     0.057120441
      3147.10       1.1215179     0.056184789
      3150.24       1.1241546     0.056326494
      3153.39       1.1162321     0.055446392
      3156.55       1.1218509     0.055587931
      3159.70       1.1116828     0.054937698
      3162.86       1.1113369     0.054100079
      3166.03       1.1096726     0.054278623
      3169.19       1.1048754     0.053492374
      3172.36       1.1045199     0.052914169
      3175.54       1.1030347     0.053127317
      3178.71       1.0952284     0.052377199
      3181.89       1.0863263     0.051875874
      3185.07       1.0848755     0.051885467
      3188.26       1.1050985     0.051404066
      3191.45       1.0813681     0.050972865
      3194.64       1.0804144     0.050974467
      3197.83       1.0760703     0.050560806
      3201.03       1.0712670     0.050193350
      3204.23       1.0709831     0.050188030
      3207.44       1.0720985     0.049835845
      3210.64       1.0626202     0.049231859
      3213.85       1.0501525     0.049514863
      3217.07       1.0323293     0.049218189
      3220.28       1.0138124     0.048648478
      3223.51      0.99330143     0.048944025
      3226.73      0.99281862     0.048377214
      3229.96      0.96338845     0.048156260
      3233.19      0.95664021     0.048464631
      3236.42      0.95317510     0.047924852
      3239.66      0.95361846     0.047744651
      3242.90      0.94642461     0.048065768
      3246.14      0.94770553     0.047548024
      3249.39      0.92974235     0.047403009
      3252.64      0.92739790     0.047376623
      3255.89      0.91474983     0.047236110
      3259.14      0.92854419     0.047120838
      3262.40      0.92667721     0.047091868
      3265.67      0.92920376     0.046978724
      3268.93      0.94113831     0.046887876
      3272.20      0.94084299     0.046377489
      3275.47      0.93158431     0.046765760
      3278.75      0.92191324     0.046279478
      3282.03      0.93504224     0.046189985
      3285.31      0.93468215     0.046587609
      3288.60      0.92864862     0.046106323
      3291.88      0.96144742     0.046030870
      3295.18      0.97183452     0.046435315
      3298.47      0.98206906     0.045957516
      3301.77       1.0027949     0.045891857
      3305.07       1.0033278     0.045897448
      3308.38      0.98074303     0.064172255
      3311.69      0.99679748     0.065303788
      3315.00       1.0116081     0.065333034
      3318.31       1.0117304     0.064084464
      3321.63       1.0588157     0.064051465
      3324.95       1.0584337     0.065237925
      3328.28       1.0737065     0.063984021
      3331.61       1.0953140     0.063942690
      3334.94       1.1111512     0.065121996
      3338.27       1.1044949     0.063864310
      3341.61       1.0890191     0.063811615
      3344.95       1.1025257     0.064981207
      3348.30       1.1134784     0.063721934
      3351.65       1.1125645     0.063656308
      3355.00       1.1197707     0.063679519
      3358.35       1.1544741     0.063555993
      3361.71       1.1653912     0.063476667
      3365.07       1.1658906     0.063504261
      3368.44       1.1675454     0.063367082
      3371.81       1.1456471     0.063273701
      3375.18       1.1420181     0.063307560
      3378.56       1.1101218     0.063156446
      3381.94       1.0735484     0.063048693
      3385.32       1.0609293     0.061815010
      3388.70       1.0628255     0.062925483
      3392.09       1.0678304     0.062803392
      3395.48       1.0462226     0.061565343
      3398.88       1.0353455     0.062676165
      3402.28       1.0183916     0.062539876
      3405.68       1.0305866     0.061297450
      3409.09       1.0137093     0.062410695
      3412.49      0.98976075     0.062260346
      3415.91       1.0098163     0.061013687
      3419.32       1.0175537     0.062131250
      3422.74       1.0019257     0.061967072
      3426.17      0.98290785     0.060716182
      3429.59       1.0153513     0.060633649
      3433.02       1.0255215     0.061662342
      3436.45       1.0447009     0.060407209
      3439.89       1.0464290     0.060310959
      3443.33       1.0502455     0.061348516
      3446.78       1.0584953     0.060089025
      3450.22       1.0592916     0.059979428
      3453.67       1.0901173     0.061027957
      3457.13       1.1056695     0.060864927
      3460.58       1.1252955     0.059641429
      3464.04       1.1242473     0.059559438
      3467.51       1.1082473     0.060526968
      3470.98       1.0850830     0.059299269
      3474.45       1.0805015     0.059204016
      3477.92       1.1060174     0.060187493
      3481.40       1.1062437     0.058955528
      3484.88       1.1171554     0.058847512
      3488.37       1.1302794     0.058774753
      3491.86       1.1324024     0.058612556
      3495.35       1.1072474     0.058492282
      3498.84       1.0887988     0.058406849
      3502.34       1.0861477     0.058272846
      3505.84       1.0456097     0.058140809
      3509.35       1.0249784     0.058043171
      3512.86       1.0283510     0.056920251
      3516.37       1.0357590     0.057795617
      3519.89       1.0322144     0.057686503
      3523.41       1.0227352     0.056601501
      3526.93       1.0246263     0.057459240
      3530.46       1.0128392     0.057339258
      3533.99       1.0354863     0.057258399
      3537.53       1.0443127     0.056132711
      3541.06       1.0416018     0.057003968
      3544.60       1.0382007     0.056912212
      3548.15       1.0338787     0.055829746
      3551.70       1.0485594     0.056683318
      3555.25       1.0257067     0.056581235
      3558.80       1.0174856     0.055542980
      3562.36       1.0244794     0.055399068
      3565.92       1.0530194     0.056267975
      3569.49       1.0733678     0.056189553
      3573.06       1.0770370     0.055123675
      3576.64       1.0936807     0.055004547
      3580.21       1.1038560     0.055887070
      3583.79       1.1132791     0.054869779
      3587.38       1.1306842     0.054743338
      3590.96       1.1598423     0.055607735
      3594.55       1.1682164     0.054639287
      3598.15       1.1715301     0.054505786
      3601.75       1.1761643     0.054404088
      3605.35       1.1766050     0.055284229
      3608.96       1.1761001     0.054293368
      3612.56       1.1971943     0.054184207
      3616.18       1.1987647     0.054105746
      3619.79       1.2001476     0.054107037
      3623.41       1.2037950     0.053989887
      3627.04       1.1874444     0.053902640
      3630.66       1.1842890     0.053844928
      3634.29       1.1817278     0.053821356
      3637.93       1.1637401     0.053724495
      3641.57       1.1441662     0.053656588
      3645.21       1.1410645     0.053678542
      3648.86       1.1399157     0.054491590
      3652.50       1.1441942     0.055688161
      3656.16       1.1281032     0.053949652
      3659.81       1.1316533     0.052546674
      3663.47       1.1243677     0.053467758
      3667.14       1.1152394     0.053219486
      3670.80       1.1204700     0.052618039
      3674.48       1.1060180     0.052895985
      3678.15       1.0937039     0.053803347
      3681.83       1.0898041     0.054174416
      3685.51       1.0749460     0.053834344
      3689.20       1.0677585     0.054310636
      3692.88       1.0559435     0.055327919
      3696.58       1.0599146     0.054874816
      3700.27       1.0534425     0.055275904
      3703.98       1.0580024     0.055620887
      3707.68       1.0599000     0.056710056
      3711.39       1.0524717     0.055959623
      3715.10       1.0504130     0.056067773
      3718.81       1.0692307     0.056099353
      3722.53       1.0689217     0.057085054
      3726.26       1.0742254     0.055616431
      3729.98       1.1086100     0.055418812
      3733.71       1.1143010     0.055142792
      3737.45       1.1136274     0.054745748
      3741.18       1.1049522     0.054335251
      3744.93       1.1055634     0.053894845
      3748.67       1.0923380     0.053458300
      3752.42       1.0925846     0.053041972
      3756.17       1.0876867     0.052554228
      3759.93       1.0708666     0.052131990
      3763.69       1.0510782     0.051810317
      3767.45       1.0560050     0.051380993
      3771.22       1.0613219     0.051121532
      3774.99       1.0591078     0.051061806
      3778.77       1.0680308     0.051297858
      3782.54       1.0721265     0.050227437
      3786.33       1.0741969     0.051478821
      3790.11       1.0823707     0.052916672
      3793.90       1.0788966     0.051661576
      3797.70       1.1061466     0.050746469
      3801.50       1.1151439     0.050590619
      3805.30       1.1349592     0.050523140
      3809.10       1.1331567     0.049664744
      3812.91       1.1408308     0.049556164
      3816.73       1.1731970     0.049458436
      3820.54       1.1784103     0.050201397
      3824.36       1.1909687     0.049349880
      3828.19       1.2219756     0.049223236
      3832.02       1.2373481     0.049105972
      3835.85       1.2686544     0.049830356
      3839.68       1.2839727     0.048990206
      3843.52       1.3008293     0.048842867
      3847.37       1.3118972     0.048704043
      3851.22       1.3371683     0.048572790
      3855.07       1.3595187     0.049288765
      3858.92       1.3654150     0.048410090
      3862.78       1.3772154     0.048246838
      3866.64       1.3890907     0.048090774
      3870.51       1.4086817     0.048783482
      3874.38       1.4266840     0.047920167
      3878.26       1.4447883     0.047730782
      3882.13       1.4198395     0.047547304
      3886.02       1.4288706     0.047370046
      3889.90       1.4412721     0.047370069
      3893.79       1.4645271     0.047153189
      3897.69       1.4752551     0.046942099
      3901.59       1.5064000     0.046735965
      3905.49       1.5192306     0.045852492
      3909.39       1.5233004     0.046514900
      3913.30       1.5372405     0.046275843
      3917.22       1.5507567     0.046042395
      3921.13       1.5654699     0.045152417
      3925.06       1.5738632     0.044935216
      3928.98       1.5816875     0.045553814
      3932.91       1.5666781     0.045293666
      3936.84       1.5670462     0.045039426
      3940.78       1.5743247     0.044156959
      3944.72       1.5680595     0.043919310
      3948.67       1.5811658     0.044497942
      3952.61       1.5720211     0.044219271
      3956.57       1.5842598     0.043336546
      3960.52       1.5797740     0.043074673
      3964.48       1.5920180     0.042819428
      3968.45       1.5903035     0.043362610
      3972.42       1.5728943     0.043068471
      3976.39       1.5510778     0.042198367
      3980.37       1.5481732     0.041921604
      3984.35       1.5337314     0.041652003
      3988.33       1.5092131     0.041386490
      3992.32       1.4993169     0.041296008
      3996.31       1.4823666     0.041003054
      4000.31       1.4608795     0.040714834
      4004.31       1.4485319     0.040434264
      4008.31       1.4276137     0.040158333
      4012.32       1.4110133     0.040069607
      4016.33       1.3989955     0.039768214
      4020.35       1.3744118     0.039472142
      4024.37       1.3646091     0.039184122
      4028.40       1.3375230     0.038407633
      4032.42       1.3144380     0.038098465
      4036.46       1.2927440     0.038511628
      4040.50       1.2819217     0.038211354
      4044.54       1.2695076     0.037919635
      4048.58       1.2453417     0.037168970
      4052.63       1.2174931     0.036858798
      4056.68       1.2056667     0.037251322
      4060.74       1.1851856     0.036950677
      4064.80       1.1481104     0.036659064
      4068.86       1.1195215     0.035939143
      4072.93       1.0993717     0.035631875
      4077.01       1.0914682     0.035332216
      4081.08       1.0743769     0.035708186
      4085.17       1.0607870     0.035420543
      4089.25       1.0582460     0.034736110
      4093.34       1.0600273     0.034435479
      4097.43       1.0615154     0.034143102
      4101.53       1.0637397     0.033859798
      4105.63       1.0670939     0.034222386
      4109.74       1.0834170     0.033577484
      4113.85       1.0948035     0.033287311
      4117.96       1.0864830     0.033006026
      4122.08       1.0923031     0.032734519
      4126.20       1.0811121     0.032472260
      4130.33       1.0787457     0.032480600
      4134.46       1.0859169     0.032204629
      4138.59       1.0879181     0.031938123
      4142.73       1.0892406     0.031682136
      4146.88       1.1010891     0.031435947
      4151.02       1.1148170     0.031200133
      4155.18       1.1207600     0.030601122
      4159.33       1.1303862     0.030955902
      4163.49       1.1416077     0.030718881
      4167.65       1.1312046     0.030492149
      4171.82       1.1252559     0.030276367
      4175.99       1.1186492     0.029702546
      4180.17       1.1133186     0.029508188
      4184.35       1.1199266     0.029323001
      4188.54       1.1125520     0.029654349
      4192.72       1.1049813     0.029461037
      4196.92       1.0713239     0.029278454
      4201.11       1.0665907     0.028739618
      4205.31       1.0630258     0.028577172
      4209.52       1.0592768     0.028426211
      4213.73       1.0496839     0.028284757
      4217.94       1.0450814     0.028604850
      4222.16       1.0382329     0.028088241
      4226.38       1.0180317     0.027949650
      4230.61       1.0229860     0.027822695
      4234.84       1.0281211     0.027705114
      4239.08       1.0299673     0.027598980
      4243.32       1.0275014     0.027502415
      4247.56       1.0281810     0.027445433
      4251.81       1.0381433     0.027343225
      4256.06       1.0419474     0.027744978
      4260.32       1.0479386     0.028079915
      4264.58       1.0558502     0.028631647
      4268.84       1.0620202     0.028995577
      4273.11       1.0654327     0.029258614
      4277.38       1.0595768     0.030245877
      4281.66       1.0586306     0.030661368
      4285.94       1.0677483     0.032116166
      4290.23       1.0653928     0.032637866
      4294.52       1.0793972     0.034894259
      4298.81       1.0845656     0.036931379
      4303.11       1.0921307     0.043069772
      4307.42       1.0963328     0.046210375
      4311.72       1.0968300     0.046958365
      4316.04       1.0973227     0.050561258
      4320.35       1.1007029     0.052906688
      4324.67       1.1068086     0.053916961
      4329.00       1.1112807     0.058265180
      4333.33       1.1183467       1.1183467
      4337.66       1.1190891       1.1190891
      4342.00       1.1236166       1.1236166
      4346.34       1.1161485       1.1161485
      4350.69       1.1193489       1.1193489
      4355.04       1.1162907       1.1162907
      4359.39       1.1025113       1.1025113
      4363.75       1.1041168       1.1041168
      4368.12       1.0900123       1.0900123
      4372.48       1.0806750       1.0806750
      4376.86       1.0872734       1.0872734
      4381.23       1.0988363       1.0988363
      4385.61       1.1178432       1.1178432
      4390.00       1.0973340       1.0973340
      4394.39       1.1046568       1.1046568
      4398.79       1.0942464       1.0942464
      4403.18       1.1018256       1.1018256
      4407.59       1.0976751       1.0976751
      4412.00       1.1004950       1.1004950
      4416.41       1.1003178       1.1003178
      4420.82       1.0900063       1.0900063
      4425.25       1.0880652       1.0880652
      4429.67       1.0930304       1.0930304
      4434.10       1.0744720       1.0744720
      4438.54       1.0778499       1.0778499
      4442.97       1.0924229       1.0924229
      4447.42       1.1170352       1.1170352
      4451.86       1.1350536       1.1350536
      4456.32       1.1496886       1.1496886
      4460.77       1.1640169       1.1640169
      4465.24       1.1590384       1.1590384
      4469.70       1.1730795       1.1730795
      4474.17       1.2012808       1.2012808
      4478.65       1.2210350       1.2210350
      4483.12       1.2423816       1.2423816
      4487.61       1.2355694       1.2355694
      4492.09       1.2297801       1.2297801
      4496.59       1.2116400       1.2116400
      4501.08       1.2266733       1.2266733
      4505.58       1.2194242       1.2194242
      4510.09       1.2337164       1.2337164
      4514.60       1.2387408       1.2387408
      4519.12       1.2445431       1.2445431
      4523.63       1.2707567       1.2707567
      4528.16       1.2632385       1.2632385
      4532.69       1.2650117       1.2650117
      4537.22       1.2473259       1.2473259
      4541.76       1.2579057       1.2579057
      4546.30       1.2492571       1.2492571
      4550.85       1.2587764       1.2587764
      4555.40       1.2720383       1.2720383
      4559.95       1.2748139       1.2748139
      4564.51       1.2756100       1.2756100
      4569.08       1.2770878       1.2770878
      4573.65       1.2799864       1.2799864
      4578.22       1.2810691       1.2810691
      4582.80       1.2901033       1.2901033
      4587.38       1.2985633       1.2985633
      4591.97       1.2996440       1.2996440
      4596.56       1.2960878       1.2960878
      4601.16       1.2841058       1.2841058
      4605.76       1.2792002       1.2792002
      4610.37       1.2858418       1.2858418
      4614.98       1.2818032       1.2818032
      4619.59       1.2742065       1.2742065
      4624.21       1.2783807       1.2783807
      4628.84       1.2818187       1.2818187
      4633.47       1.2882418       1.2882418
      4638.10       1.2839747       1.2839747
      4642.74       1.3194128       1.3194128
      4647.38       1.3236396       1.3236396
