# starting wavelength =        2948.3800
# ending wavelength =        8746.5900
# O2 telluric scale =       0.11415885
# O2 telluric shift =        6.2436108
# H2O telluric scale =        0
# H2O telluric shift =        0
      2949.13       1.8262475      0.15533529
      2952.08       1.8893528      0.12828286
      2955.03       1.9292597      0.10413041
      2957.99       1.9553151     0.094557432
      2960.94       1.9754575     0.079201858
      2963.90       1.9785136     0.073246239
      2966.87       1.9589717     0.065617765
      2969.84       1.9414280     0.058333684
      2972.81       1.9306240     0.055378242
      2975.78       1.9212094     0.050981284
      2978.76       1.9138385     0.047989688
      2981.73       1.9025274     0.046349156
      2984.72       1.8850028     0.044144167
      2987.70       1.8563271     0.042959219
      2990.69       1.8112450     0.041124283
      2993.68       1.7921324     0.039876475
      2996.67       1.7854428     0.039038932
      2999.67       1.7769083     0.038164012
      3002.67       1.7684278     0.036831903
      3005.67       1.7554603     0.036346509
      3008.68       1.7425490     0.035875238
      3011.69       1.7252647     0.035419121
      3014.70       1.6999885     0.034515319
      3017.71       1.6911447     0.034066605
      3020.73       1.6798482     0.033631412
      3023.75       1.6682990     0.033333355
      3026.78       1.6591292     0.032353433
      3029.80       1.6558329     0.031938979
      3032.83       1.6521050     0.031663402
      3035.87       1.6548113     0.030733823
      3038.90       1.6571951     0.030340905
      3041.94       1.6571275     0.030084917
      3044.98       1.6669051     0.029693190
      3048.03       1.6876522     0.028831550
      3051.08       1.6944070     0.028595342
      3054.13       1.6973743     0.028224058
      3057.18       1.7139692     0.028013345
      3060.24       1.7095115     0.027191557
      3063.30       1.7096284     0.026840961
      3066.36       1.7182411     0.026645214
      3069.43       1.7247883     0.026318466
      3072.50       1.7220537     0.025541801
      3075.57       1.7438163     0.025360506
      3078.65       1.7655192     0.025053314
      3081.73       1.7870354     0.024456263
      3084.81       1.8025837     0.024157122
      3087.89       1.8166558     0.023869786
      3090.98       1.8230284     0.023698683
      3094.07       1.8342536     0.023031537
      3097.17       1.8445974     0.022763069
      3100.26       1.8595407     0.022608303
      3103.36       1.8612150     0.021981251
      3106.47       1.8672767     0.021851240
      3109.58       1.8762621     0.021592179
      3112.68       1.8905269     0.021344583
      3115.80       1.8969231     0.020888337
      3118.91       1.9021475     0.020647861
      3122.03       1.9078125     0.020549467
      3125.15       1.8941357     0.019995079
      3128.28       1.8926194     0.019773428
      3131.41       1.8975359     0.019689948
      3134.54       1.9037032     0.019170016
      3137.67       1.8958680     0.019091738
      3140.81       1.8850980     0.018897803
      3143.95       1.8754572     0.018714397
      3147.10       1.8597210     0.018346478
      3150.24       1.8500284     0.018169260
      3153.39       1.8327369     0.018111794
      3156.55       1.8208940     0.017662889
      3159.70       1.8108033     0.017502272
      3162.86       1.7998996     0.017456645
      3166.03       1.7828392     0.017038863
      3169.19       1.7632075     0.017012460
      3172.36       1.7452640     0.016860119
      3175.54       1.7305927     0.016602814
      3178.71       1.7236150     0.016456078
      3181.89       1.7145688     0.016319731
      3185.07       1.7033998     0.016085016
      3188.26       1.6968933     0.015953956
      3191.45       1.6858613     0.015965884
      3194.64       1.6822388     0.015619446
      3197.83       1.6757960     0.015636860
      3201.03       1.6674929     0.015530054
      3204.23       1.6588329     0.015203552
      3207.44       1.6529623     0.015235583
      3210.64       1.6497239     0.015143649
      3213.85       1.6472881     0.015180155
      3217.07       1.6467917     0.014881846
      3220.28       1.6414124     0.014934123
      3223.51       1.6387749     0.014847810
      3226.73       1.6426854     0.014572527
      3229.96       1.6493575     0.014632158
      3233.19       1.6504644     0.014366660
      3236.42       1.6422670     0.014441036
      3239.66       1.6428362     0.014372043
      3242.90       1.6515922     0.014273147
      3246.14       1.6544637     0.014207497
      3249.39       1.6579886     0.014303569
      3252.64       1.6608138     0.014064719
      3255.89       1.6585392     0.014165362
      3259.14       1.6531384     0.014122129
      3262.40       1.6401422     0.014047627
      3265.67       1.6330664     0.014006916
      3268.93       1.6281394     0.013975898
      3272.20       1.6121825     0.013910605
      3275.47       1.6037712     0.013881822
      3278.75       1.5942412     0.014006203
      3282.03       1.5863152     0.013805504
      3285.31       1.5805713     0.013941813
      3288.60       1.5768643     0.013915433
      3291.88       1.5678431     0.013892950
      3295.18       1.5672449     0.013867914
      3298.47       1.5627505     0.013858509
      3301.77       1.5685550     0.013834489
      3305.07       1.5816470     0.013999170
      3308.38       1.5952062     0.013813985
      3311.69       1.6024724     0.013981115
      3315.00       1.6149243     0.013978414
      3318.31       1.6264528     0.013974384
      3321.63       1.6421833     0.013971927
      3324.95       1.6673620     0.014150186
      3328.28       1.6937671     0.013976081
      3331.61       1.7191651     0.014162545
      3334.94       1.7333101     0.013988840
      3338.27       1.7530399     0.014182913
      3341.61       1.7688804     0.014178613
      3344.95       1.7804644     0.014210137
      3348.30       1.7895103     0.014204860
      3351.65       1.7901828     0.014416150
      3355.00       1.7835714     0.014236413
      3358.35       1.7754032     0.014447648
      3361.71       1.7802756     0.014272002
      3365.07       1.7916967     0.014482700
      3368.44       1.7983537     0.014497103
      3371.81       1.7982641     0.014519895
      3375.18       1.7988327     0.014532750
      3378.56       1.8053153     0.014558665
      3381.94       1.8136837     0.014569675
      3385.32       1.8171858     0.014782670
      3388.70       1.8192431     0.014605826
      3392.09       1.8256239     0.014820992
      3395.48       1.8302263     0.014640065
      3398.88       1.8337703     0.014856518
      3402.28       1.8403386     0.015086741
      3405.68       1.8461150     0.014887956
      3409.09       1.8553525     0.015114277
      3412.49       1.8654504     0.014914691
      3415.91       1.8733364     0.015136973
      3419.32       1.8845176     0.015145260
      3422.74       1.9014865     0.015153429
      3426.17       1.9028743     0.015158022
      3429.59       1.8931364     0.015163514
      3433.02       1.8843858     0.015164231
      3436.45       1.8825269     0.015376025
      3439.89       1.8875041     0.015394987
      3443.33       1.8946667     0.015371906
      3446.78       1.8908159     0.015386602
      3450.22       1.8928211     0.015359868
      3453.67       1.8987685     0.015592999
      3457.13       1.9025143     0.015339973
      3460.58       1.9088489     0.015568073
      3464.04       1.9112293     0.015312923
      3467.51       1.9141633     0.015536514
      3470.98       1.9093539     0.015517379
      3474.45       1.9133026     0.015498009
      3477.92       1.9166161     0.015709111
      3481.40       1.9320079     0.015453036
      3484.88       1.9512187     0.015659682
      3488.37       1.9747331     0.015649651
      3491.86       1.9908856     0.015602931
      3495.35       1.9950484     0.015587477
      3498.84       1.9921338     0.015539086
      3502.34       1.9752714     0.015765366
      3505.84       1.9691329     0.015468267
      3509.35       1.9742294     0.015691833
      3512.86       1.9859977     0.015642383
      3516.37       1.9972285     0.015612549
      3519.89       2.0149656     0.015557792
      3523.41       2.0328933     0.015527667
      3526.93       2.0415936     0.015468117
      3530.46       2.0568085     0.015682480
      3533.99       2.0662686     0.015372258
      3537.53       2.0705167     0.015579578
      3541.06       2.0942315     0.015270666
      3544.60       2.1224837     0.015470737
      3548.15       2.1415507     0.015163637
      3551.70       2.1530651     0.015356935
      3555.25       2.1510458     0.015052333
      3558.80       2.1574713     0.015238536
      3562.36       2.1548545     0.014936823
      3565.92       2.1440961     0.015115826
      3569.49       2.1395066     0.014817393
      3573.06       2.1328269     0.014739295
      3576.64       2.1334291     0.014694615
      3580.21       2.1287755     0.014610114
      3583.79       2.1319457     0.014567827
      3587.38       2.1368001     0.014477043
      3590.96       2.1373428     0.014437480
      3594.55       2.1295162     0.014340395
      3598.15       2.1300243     0.014039859
      3601.75       2.1272362     0.014201341
      3605.35       2.1299818     0.014112677
      3608.96       2.1385882     0.014060047
      3612.56       2.1455564     0.013965318
      3616.18       2.1455840     0.013916741
      3619.79       2.1368187     0.013815970
      3623.41       2.1412193     0.013521860
      3627.04       2.1392344     0.013665465
      3630.66       2.1392376     0.013367944
      3634.29       2.1456454     0.013512803
      3637.93       2.1439297     0.013212152
      3641.57       2.1377169     0.013358500
      3645.21       2.1298710     0.013252374
      3648.86       2.1239785     0.012962851
      3652.50       2.1222890     0.013091748
      3656.16       2.1148246     0.012799638
      3659.81       2.1060699     0.012931035
      3663.47       2.0973747     0.012636343
      3667.14       2.0853393     0.012543845
      3670.80       2.0677685     0.012659562
      3674.48       2.0630859     0.012374961
      3678.15       2.0637090     0.012493766
      3681.83       2.0578915     0.012206568
      3685.51       2.0550879     0.012112398
      3689.20       2.0538773     0.012038970
      3692.88       2.0563967     0.011939090
      3696.58       2.0561485     0.012047688
      3700.27       2.0643086     0.011767576
      3703.98       2.0732744     0.011672059
      3707.68       2.0730648     0.011597959
      3711.39       2.0764212     0.011497100
      3715.10       2.0806110     0.011238171
      3718.81       2.0799469     0.011324902
      3722.53       2.0726532     0.011228462
      3726.26       2.0705012     0.011154829
      3729.98       2.0674098     0.011052999
      3733.71       2.0627381     0.010801553
      3737.45       2.0569742     0.010880394
      3741.18       2.0503943     0.010782772
      3744.93       2.0565558     0.010530257
      3748.67       2.0579020     0.010609390
      3752.42       2.0591841     0.010368005
      3756.17       2.0629276     0.010440206
      3759.93       2.0690940     0.010341509
      3763.69       2.0676947     0.010100838
      3767.45       2.0731317     0.010172692
      3771.22       2.0758503    0.0099432078
      3774.99       2.0793302    0.0098375689
      3778.77       2.0831232    0.0099087240
      3782.54       2.0821007    0.0096808191
      3786.33       2.0754463    0.0095791085
      3790.11       2.0621071    0.0096494752
      3793.90       2.0516446    0.0094242565
      3797.70       2.0457147    0.0093264299
      3801.50       2.0470154    0.0092752412
      3805.30       2.0510623    0.0091743505
      3809.10       2.0522113    0.0090808037
      3812.91       2.0635797    0.0090287247
      3816.73       2.0830014    0.0089321323
      3820.54       2.0941028    0.0089955970
      3824.36       2.1131956    0.0087899434
      3828.19       2.1360037    0.0086969710
      3832.02       2.1546965    0.0086545602
      3835.85       2.1716961    0.0085590789
      3839.68       2.1991747    0.0086168384
      3843.52       2.2217349    0.0087906740
      3847.37       2.2491860    0.0091241426
      3851.22       2.2726058    0.0095631569
      3855.07       2.2973861    0.0082096768
      3858.92       2.3129347    0.0084422311
      3862.78       2.3254089    0.0086036056
      3866.64       2.3356080    0.0087878688
      3870.51       2.3451557    0.0092278565
      3874.38       2.3574902    0.0095073471
      3878.26       2.3578267    0.0095346131
      3882.13       2.3505535    0.0098284940
      3886.02       2.3517688    0.0093400942
      3889.90       2.3397990    0.0090210134
      3893.79       2.3302031    0.0087906924
      3897.69       2.3238456    0.0082443155
      3901.59       2.3165636    0.0078830621
      3905.49       2.3047837    0.0076244636
      3909.39       2.2958091    0.0073510845
      3913.30       2.2924168    0.0074917587
      3917.22       2.2830169    0.0078294847
      3921.13       2.2780860    0.0075705007
      3925.06       2.2707910    0.0072383750
      3928.98       2.2650369    0.0069658251
      3932.91       2.2582624    0.0070266553
      3936.84       2.2437680    0.0068767810
      3940.78       2.2268795    0.0068277435
      3944.72       2.2102929    0.0067830679
      3948.67       2.1955911    0.0067457750
      3952.61       2.1727485    0.0066991990
      3956.57       2.1544540    0.0066569362
      3960.52       2.1398655    0.0065224777
      3964.48       2.1252501    0.0065795926
      3968.45       2.1195819    0.0065392009
      3972.42       2.1081451    0.0064117879
      3976.39       2.0998785    0.0064685444
      3980.37       2.0921380    0.0064300697
      3984.35       2.0856754    0.0063953832
      3988.33       2.0842918    0.0062707953
      3992.32       2.0821435    0.0063300346
      3996.31       2.0906478    0.0062971093
      4000.31       2.0908884    0.0061798249
      4004.31       2.0923325    0.0061457716
      4008.31       2.0912536    0.0062073819
      4012.32       2.0890117    0.0060971746
      4016.33       2.0895119    0.0060646685
      4020.35       2.0919422    0.0060350217
      4024.37       2.0932470    0.0060983634
      4028.40       2.0957673    0.0059915351
      4032.42       2.0985479    0.0059632377
      4036.46       2.1002488    0.0059380973
      4040.50       2.1083505    0.0060034921
      4044.54       2.1128060    0.0058999784
      4048.58       2.1171031    0.0058758923
      4052.63       2.1215283    0.0058543316
      4056.68       2.1207279    0.0058446117
      4060.74       2.1176080    0.0058213521
      4064.80       2.1205076    0.0058007004
      4068.86       2.1238692    0.0057826010
      4072.93       2.1218910    0.0056861250
      4077.01       2.1194948    0.0057547621
      4081.08       2.1153321    0.0057373230
      4085.17       2.1089462    0.0057220960
      4089.25       2.1036897    0.0056287634
      4093.34       2.0966651    0.0056999924
      4097.43       2.0870655    0.0056854018
      4101.53       2.0763778    0.0056730183
      4105.63       2.0637091    0.0055819918
      4109.74       2.0499835    0.0055733850
      4113.85       2.0356199    0.0056436142
      4117.96       2.0275256    0.0056318159
      4122.08       2.0179113    0.0055444316
      4126.20       2.0067527    0.0055379648
      4130.33       1.9922408    0.0055333667
      4134.46       1.9777947    0.0056036683
      4138.59       1.9664325    0.0055165553
      4142.73       1.9634997    0.0055118345
      4146.88       1.9560335    0.0055088803
      4151.02       1.9492106    0.0055076376
      4155.18       1.9439098    0.0055785697
      4159.33       1.9380126    0.0054940838
      4163.49       1.9277417    0.0054922641
      4167.65       1.9172725    0.0054920315
      4171.82       1.9072048    0.0054933351
      4175.99       1.8957947    0.0054840044
      4180.17       1.8873920    0.0054833444
      4184.35       1.8755325    0.0054843036
      4188.54       1.8626300    0.0054864262
      4192.72       1.8486588    0.0054899653
      4196.92       1.8395275    0.0054119564
      4201.11       1.8319970    0.0054836148
      4205.31       1.8204847    0.0054863665
      4209.52       1.8113710    0.0054901388
      4213.73       1.7997816    0.0054951360
      4217.94       1.7903578    0.0054196991
      4222.16       1.7842266    0.0054226589
      4226.38       1.7741029    0.0054966440
      4230.61       1.7713114    0.0055019891
      4234.84       1.7625671    0.0055081645
      4239.08       1.7555495    0.0054359433
      4243.32       1.7458393    0.0054400455
      4247.56       1.7371969    0.0054449126
      4251.81       1.7308706    0.0054508562
      4256.06       1.7205522    0.0055274149
      4260.32       1.7129309    0.0054588100
      4264.58       1.7052527    0.0054633853
      4268.84       1.6935965    0.0054687891
      4273.11       1.6883825    0.0054749974
      4277.38       1.6854255    0.0054819887
      4281.66       1.6820409    0.0054897027
      4285.94       1.6760477    0.0054926417
      4290.23       1.6726507    0.0054982043
      4294.52       1.6663344    0.0055042574
      4298.81       1.6592846    0.0055110767
      4303.11       1.6576226    0.0055884790
      4307.42       1.6579157    0.0055888315
      4311.72       1.6576062    0.0054596006
      4316.04       1.6544776    0.0054765948
      4320.35       1.6527712    0.0055825764
      4324.67       1.6537564    0.0056490434
      4329.00       1.6536133    0.0057285483
      4333.33       1.6544977    0.0058080408
      4337.66       1.6541538    0.0058766920
      4342.00       1.6574781    0.0058429282
      4346.34       1.6630316    0.0058548315
      4350.69       1.6631327    0.0058473924
      4355.04       1.6694829    0.0058162146
      4359.39       1.6741902    0.0058552459
      4363.75       1.6819090    0.0057897895
      4368.12       1.6869902    0.0057230904
      4372.48       1.6925498    0.0055893614
      4376.86       1.6932311    0.0055559872
      4381.23       1.6966806    0.0055643687
      4385.61       1.7068222    0.0056553287
      4390.00       1.7113037    0.0056610960
      4394.39       1.7153899    0.0055885621
      4398.79       1.7196456    0.0055971681
      4403.18       1.7238119    0.0056058807
      4407.59       1.7297972    0.0055989678
      4412.00       1.7371870    0.0056059778
      4416.41       1.7458692    0.0056130573
      4420.82       1.7511860    0.0056200327
      4425.25       1.7599505    0.0056271327
      4429.67       1.7682764    0.0056342941
      4434.10       1.7720559    0.0056413641
      4438.54       1.7788671    0.0056484977
      4442.97       1.7866428    0.0056556217
      4447.42       1.7955723    0.0055837093
      4451.86       1.7984888    0.0055888762
      4456.32       1.8062531    0.0055940259
      4460.77       1.8107028    0.0055991374
      4465.24       1.8171324    0.0056043504
      4469.70       1.8207897    0.0056779069
      4474.17       1.8226240    0.0058404413
      4478.65       1.8273016    0.0057123226
      4483.12       1.8319602    0.0056965253
      4487.61       1.8355139    0.0057340035
      4492.09       1.8419286    0.0057989963
      4496.59       1.8475528    0.0057836055
      4501.08       1.8512953    0.0058543359
      4505.58       1.8516765    0.0059175678
      4510.09       1.8532938    0.0059648600
      4514.60       1.8512846    0.0059900442
      4519.12       1.8458025    0.0059803057
      4523.63       1.8403503    0.0059480516
