# starting wavelength =        3026.6174
# ending wavelength =        8213.6989
# O2 telluric scale =        0
# O2 telluric shift =        0
# H2O telluric scale =        0
# H2O telluric shift =        0
      3026.78      0.82622839      0.26658315
      3029.80      0.79764811      0.26122194
      3032.83      0.77842865      0.23492383
      3035.87      0.77046132      0.20183584
      3038.90      0.75984563      0.19597880
      3041.94      0.74931791      0.18358252
      3044.98      0.74991018      0.16786057
      3048.03      0.74163592      0.16452691
      3051.08      0.72837375      0.15449196
      3054.13      0.72484752      0.15121646
      3057.18      0.68738184      0.14786442
      3060.24      0.71481487      0.14209382
      3063.30      0.71790113      0.14087125
      3066.36      0.74043569      0.13754640
      3069.43      0.78941211      0.13362794
      3072.50      0.79421726      0.13345325
      3075.57      0.81937220      0.13049205
      3078.65      0.78890936      0.12928319
      3081.73      0.81378229      0.12856757
      3084.81      0.81382576      0.12827275
      3087.89      0.84842018      0.12724993
      3090.98      0.82820377      0.12616846
      3094.07      0.82602445      0.12799309
      3097.17      0.84149250      0.12436103
      3100.26      0.82486083      0.12278285
      3103.36      0.92634242      0.12124865
      3106.47      0.93149607      0.12086968
      3109.58      0.94492965      0.11977580
      3112.68      0.88612504      0.11899923
      3115.80      0.89723803      0.11870060
      3118.91      0.90311877      0.11824670
      3122.03      0.94099983      0.11814917
      3125.15      0.96442645      0.11597925
      3128.28      0.96822918      0.11764801
      3131.41      0.92255594      0.11749300
      3134.54      0.91904457      0.11508921
      3137.67      0.92079640      0.11691050
      3140.81      0.87407859      0.11628027
      3143.95      0.84703291      0.11625897
      3147.10      0.87540823      0.11367676
      3150.24      0.87443418      0.11572641
      3153.39      0.93856681      0.11477097
      3156.55      0.91330589      0.11223147
      3159.70      0.93636070      0.11094942
      3162.86      0.93439428      0.11228893
      3166.03      0.95399068      0.10985287
      3169.19      0.88514042      0.10856996
      3172.36      0.88379590      0.10953990
      3175.54      0.88886473      0.10801912
      3178.71      0.91571090      0.10575369
      3181.89      0.96441983      0.10474145
      3185.07      0.97866229      0.10559847
      3188.26      0.99232783      0.10364106
      3191.45       1.0168442      0.10271971
      3194.64       1.0236011      0.10221638
      3197.83       1.0273835      0.10221934
      3201.03      0.98311349      0.10183367
      3204.23       1.0403268      0.10176883
      3207.44       1.0232459      0.10162176
      3210.64       1.0253218      0.10157017
      3213.85       1.0198337      0.10138355
      3217.07       1.0036781      0.10111052
      3220.28       1.0064344      0.10114190
      3223.51       1.0169319      0.10044978
      3226.73       1.0721289     0.099462802
      3229.96       1.0158070     0.098787830
      3233.19       1.0090509     0.098778374
      3236.42      0.99013384     0.097505737
      3239.66       1.0341009     0.096193270
      3242.90       1.0057713     0.094038783
      3246.14       1.0272561     0.095458807
      3249.39      0.97275262     0.094325544
      3252.64      0.96725155     0.093229772
      3255.89      0.90685202     0.090974662
      3259.14      0.89220169     0.091957149
      3262.40      0.89564019     0.090418390
      3265.67      0.88091380     0.088300390
      3268.93      0.87559011     0.087408865
      3272.20      0.89751579     0.088500363
      3275.47      0.88639998     0.087542657
      3278.75      0.91369094     0.085512079
      3282.03      0.89595313     0.084900594
      3285.31      0.90496181     0.085887919
      3288.60      0.90270393     0.085254001
      3291.88      0.84376687     0.083445762
      3295.18      0.82280682     0.082651664
      3298.47      0.85448463     0.083673580
      3301.77      0.89062568     0.081785546
      3305.07      0.89532561     0.081368707
      3308.38      0.93775292     0.081220168
      3311.69      0.94079361     0.082219002
      3315.00      0.95094684     0.080814948
      3318.31      0.95820337     0.080583187
      3321.63      0.99445568     0.080368008
      3324.95       1.0122309     0.080176584
      3328.28       1.0155835     0.079963894
      3331.61       1.0459523     0.079982315
      3334.94       1.0405546     0.080147076
      3338.27       1.0711488     0.078648909
      3341.61       1.0896138     0.080119835
      3344.95       1.1200288     0.080261076
      3348.30       1.1271420     0.080167563
      3351.65       1.1365087     0.078547198
      3355.00       1.1438410     0.079659753
      3358.35       1.1066739     0.079181110
      3361.71       1.0949478     0.078656949
      3365.07       1.0772149     0.076989451
      3368.44       1.0704629     0.076411593
      3371.81       1.0410488     0.077434497
      3375.18       1.0358335     0.076672140
      3378.56      0.99589278     0.075056118
      3381.94      0.97287288     0.074387847
      3385.32      0.94197849     0.075081174
      3388.70      0.95727329     0.074396106
      3392.09      0.95401927     0.073074598
      3395.48      0.92553524     0.072531396
      3398.88      0.95143550     0.071986559
      3402.28      0.94179131     0.072706002
      3405.68      0.93686447     0.071474749
      3409.09      0.92283673     0.070827227
      3412.49      0.90367177     0.070334202
      3415.91      0.87799368     0.071285042
      3419.32      0.86535000     0.069706033
      3422.74      0.84038202     0.069219365
      3426.17      0.86408666     0.069279892
      3429.59      0.86764586     0.069552205
      3433.02      0.86434797     0.069562170
      3436.45      0.82058079     0.069774556
      3439.89      0.84969314     0.069891923
      3443.33      0.82053816     0.069664457
      3446.78      0.82627967     0.067983442
      3450.22      0.83666375     0.068946177
      3453.67      0.84226598     0.068179406
      3457.13      0.86823729     0.068007581
      3460.58      0.88990743     0.068036025
      3464.04      0.91458924     0.066802656
      3467.51      0.94226464     0.067811566
      3470.98      0.97505934     0.067463351
      3474.45      0.97426589     0.067072918
      3477.92      0.97465549     0.065547693
      3481.40      0.95652207     0.065026539
      3484.88      0.97688705     0.065832967
      3488.37      0.97096482     0.065261081
      3491.86      0.99569180     0.063901691
      3495.35      0.99455108     0.063646576
      3498.84       1.0142133     0.063440214
      3502.34       1.0292400     0.064261794
      3505.84       1.0312400     0.064205236
      3509.35       1.0502131     0.063388079
      3512.86       1.0517587     0.063796330
      3516.37       1.0692807     0.064464090
      3519.89       1.0963017     0.065696294
      3523.41       1.1074754     0.065206747
      3526.93       1.0998015     0.066116710
      3530.46       1.1096070     0.067077595
      3533.99       1.1190220     0.068032888
      3537.53       1.0972779     0.069201341
      3541.06       1.0892161     0.068580521
      3544.60       1.0762197     0.068950179
      3548.15       1.0701524     0.069291535
      3551.70       1.0546773     0.069550999
      3555.25       1.0405713     0.068607578
      3558.80       1.0307116     0.069930952
      3562.36       1.0138606     0.070893455
      3565.92      0.96983648     0.071402869
      3569.49      0.92082337     0.071541922
      3573.06      0.94842241     0.070324079
      3576.64      0.96465022     0.071254763
      3580.21      0.94953994     0.070873561
      3583.79      0.95690452     0.070314786
      3587.38      0.99291783     0.069982830
      3590.96      0.99739129     0.068791009
      3594.55       1.0376801     0.068736273
      3598.15       1.0303455     0.069706697
      3601.75       1.0217914     0.069360287
      3605.35      0.98349225     0.068996894
      3608.96      0.94288647     0.067758630
      3612.56      0.93159852     0.067367598
      3616.18      0.91501210     0.067079843
      3619.79      0.90680572     0.067894714
      3623.41      0.90318749     0.067682843
      3627.04      0.90238440     0.066495739
      3630.66      0.91669545     0.066126944
      3634.29      0.90090413     0.065824289
      3637.93      0.94358083     0.065527156
      3641.57      0.94927509     0.066341800
      3645.21      0.96036101     0.065264331
      3648.86      0.96315414     0.065074538
      3652.50      0.96031808     0.064935272
      3656.16      0.93606107     0.064821101
      3659.81      0.94624563     0.064742736
      3663.47      0.94681064     0.064741074
      3667.14      0.92272636     0.064561385
      3670.80      0.92564922     0.064420631
      3674.48      0.93811585     0.064202302
      3678.15      0.96066161     0.064110187
      3681.83      0.95603841     0.063063531
      3685.51      0.97092805     0.062926465
      3689.20      0.97153456     0.063821074
      3692.88      0.95885626     0.063661834
      3696.58      0.96380507     0.063424556
      3700.27      0.96500040     0.063132322
      3703.98      0.96399005     0.061987454
      3707.68      0.93558024     0.061738292
      3711.39      0.94932821     0.062627502
      3715.10      0.98008482     0.062333660
      3718.81      0.98255104     0.062056044
      3722.53      0.99644997     0.060950382
      3726.26       1.0152124     0.060653462
      3729.98       1.0171936     0.060376785
      3733.71      0.98467868     0.060105205
      3737.45      0.97450142     0.060858266
      3741.18      0.96759517     0.060467065
      3744.93      0.95001307     0.059390071
      3748.67      0.91801674     0.059177044
      3752.42      0.91534000     0.059149655
      3756.17      0.94579937     0.059051048
      3759.93      0.93477424     0.058829188
      3763.69      0.92839448     0.059571841
      3767.45      0.93079663     0.058487535
      3771.22      0.92788255     0.058107298
      3774.99      0.94659175     0.057666684
      3778.77      0.95267016     0.057377370
      3782.54      0.95034939     0.057076094
      3786.33      0.91394187     0.056874846
      3790.11      0.90432981     0.055962114
      3793.90      0.89389191     0.056537421
      3797.70      0.92831279     0.056302213
      3801.50      0.90828246     0.056131577
      3805.30      0.91254653     0.055948740
      3809.10      0.91382334     0.055784743
      3812.91      0.92843161     0.054912325
      3816.73      0.94717719     0.054870103
      3820.54      0.97252738     0.054872401
      3824.36      0.96979906     0.055687530
      3828.19      0.96948204     0.055839521
      3832.02      0.94502616     0.056055777
      3835.85      0.94600116     0.055367190
      3839.68      0.90955081     0.055574077
      3843.52      0.89612434     0.055774570
      3847.37      0.90377988     0.055971188
      3851.22      0.90466703     0.056140663
      3855.07      0.91643425     0.056310935
      3858.92      0.94049780     0.057178073
      3862.78      0.96036776     0.056410963
      3866.64      0.98470375     0.056556593
      3870.51      0.99138164     0.056667138
      3874.38      0.99281412     0.056684419
      3878.26       1.0188061     0.056706851
      3882.13       1.0463472     0.056750171
      3886.02       1.0911204     0.056770108
      3889.90       1.1181222     0.055998078
      3893.79       1.1190918     0.056911725
      3897.69       1.1500252     0.057076442
      3901.59       1.1726630     0.057340500
      3905.49       1.1873683     0.057411553
      3909.39       1.1923251     0.057453181
      3913.30       1.2030308     0.057596924
      3917.22       1.2088379     0.056808763
      3921.13       1.1953071     0.056860264
      3925.06       1.2214976     0.056921315
      3928.98       1.2104111     0.057112394
      3932.91       1.2094677     0.058006583
      3936.84       1.2349869     0.058108115
      3940.78       1.2767838     0.058141571
      3944.72       1.3027601     0.058169237
      3948.67       1.3109568     0.057366304
      3952.61       1.2854077     0.057383965
      3956.57       1.2816029     0.057371382
      3960.52       1.2994157     0.057353499
      3964.48       1.3065665     0.057387538
      3968.45       1.3182096     0.057485080
      3972.42       1.3193879     0.057572769
      3976.39       1.2993465     0.058380545
      3980.37       1.2931486     0.057553216
      3984.35       1.2689906     0.057640368
      3988.33       1.2597487     0.057745303
      3992.32       1.2365157     0.057815841
      3996.31       1.2531642     0.057868229
      4000.31       1.2863712     0.057865674
      4004.31       1.2818176     0.057894159
      4008.31       1.2959040     0.057919579
      4012.32       1.2924640     0.057091179
      4016.33       1.2963904     0.057104297
      4020.35       1.3319248     0.057177885
      4024.37       1.3400918     0.057860627
      4028.40       1.3671859     0.057766811
      4032.42       1.3905595     0.057666496
      4036.46       1.3872150     0.057633082
      4040.50       1.3753936     0.057600111
      4044.54       1.3472332     0.057594121
      4048.58       1.3305351     0.057601820
      4052.63       1.3285570     0.056840839
      4056.68       1.3102720     0.056857714
      4060.74       1.3170984     0.056862207
      4064.80       1.2990163     0.056928446
      4068.86       1.2645209     0.056988083
      4072.93       1.2546420     0.057026038
      4077.01       1.2435373     0.057031236
      4081.08       1.2406838     0.057023074
      4085.17       1.2302741     0.057774341
      4089.25       1.2335170     0.057708859
      4093.34       1.2184312     0.056910134
      4097.43       1.1823863     0.056888518
      4101.53       1.1591402     0.056889404
      4105.63       1.1384834     0.056860589
      4109.74       1.1151424     0.056773751
      4113.85       1.1153072     0.056645695
      4117.96       1.1411099     0.056528671
      4122.08       1.1239789     0.056429540
      4126.20       1.1035722     0.056308130
      4130.33       1.1047949     0.056176245
      4134.46       1.1122304     0.055298399
      4138.59       1.0876958     0.055167988
      4142.73       1.0726330     0.055017444
      4146.88       1.0610544     0.054915617
      4151.02       1.0808890     0.054820388
      4155.18       1.0779151     0.054736958
      4159.33       1.0700782     0.054652232
      4163.49       1.0719588     0.055355508
      4167.65       1.0973460     0.055314092
      4171.82       1.0976050     0.055318859
      4175.99       1.1451855     0.055282478
      4180.17       1.1547272     0.055266667
      4184.35       1.1347344     0.055112699
      4188.54       1.1521270     0.054344827
      4192.72       1.1475975     0.054265757
      4196.92       1.1568321     0.054227418
      4201.11       1.1664497     0.054207337
      4205.31       1.1803998     0.054213115
      4209.52       1.1980446     0.054213586
      4213.73       1.2202412     0.054204776
      4217.94       1.2287443     0.054174585
      4222.16       1.2454597     0.054157559
      4226.38       1.2180851     0.054166667
      4230.61       1.2255625     0.054171247
      4234.84       1.2324364     0.054185524
      4239.08       1.2343332     0.054199082
      4243.32       1.2459229     0.054214567
      4247.56       1.2492864     0.054192447
      4251.81       1.2499208     0.053423902
      4256.06       1.2458854     0.053409680
      4260.32       1.2378635     0.053375717
      4264.58       1.2438232     0.053311886
      4268.84       1.2442038     0.053195874
      4273.11       1.2597846     0.053039356
      4277.38       1.2579077     0.052863148
      4281.66       1.2594253     0.052749890
      4285.94       1.2585678     0.052648255
      4290.23       1.2904912     0.052518996
      4294.52       1.3132150     0.052416054
      4298.81       1.3208068     0.052326596
      4303.11       1.3104668     0.052233286
      4307.42       1.3064584     0.052120034
      4311.72       1.3170264     0.052045210
      4316.04       1.3022220     0.052014173
      4320.35       1.3027083     0.051994189
      4324.67       1.2824666     0.052004099
      4329.00       1.2837034     0.052030557
      4333.33       1.2895178     0.051382206
      4337.66       1.3576945     0.063719615
      4342.00       1.3387375     0.063871710
      4346.34       1.3188524     0.064039403
      4350.69       1.3327183     0.064197388
      4355.04       1.2670814     0.064348604
      4359.39       1.2343683     0.064383247
      4363.75       1.2117847     0.064475038
      4368.12       1.1791951     0.064651922
      4372.48       1.1535182     0.064794945
      4376.86       1.1769888     0.064884284
      4381.23       1.1692938     0.064973022
      4385.61       1.1637275     0.065007680
      4390.00       1.1624775     0.064992713
      4394.39       1.1387194     0.065033732
      4398.79       1.1302935     0.064998833
      4403.18       1.1226053     0.064886728
      4407.59       1.1533567     0.064672151
      4412.00       1.1827381     0.063299635
      4416.41       1.2038433     0.063103195
      4420.82       1.1988165     0.062900241
      4425.25       1.2744911     0.062729727
      4429.67       1.3009647     0.062563263
      4434.10       1.3196784     0.062373790
      4438.54       1.3122540     0.062249035
      4442.97       1.3297007     0.062104045
      4447.42       1.3105330     0.061932849
      4451.86       1.3131252     0.061802616
      4456.32       1.3508058     0.061753973
      4460.77       1.3643820     0.061744199
      4465.24       1.3905558     0.061700811
      4469.70       1.4030328     0.061695128
      4474.17       1.4515818     0.061674542
      4478.65       1.4513917     0.061742392
      4483.12       1.4622008     0.061839346
      4487.61       1.5094227     0.061833365
      4492.09       1.5509322     0.061805798
      4496.59       1.5641990     0.061795559
      4501.08       1.6209525     0.061752095
      4505.58       1.6237594     0.061742696
      4510.09       1.6319547     0.061786753
      4514.60       1.6918536     0.061797801
      4519.12       1.7533957     0.060532715
      4523.63       1.8019094     0.060406656
      4528.16       1.8391841     0.060359073
      4532.69       1.8501167     0.060402580
      4537.22       1.8874434     0.060334493
      4541.76       1.9005321     0.060327571
      4546.30       1.8801942     0.060424382
      4550.85       1.8757450     0.060524885
      4555.40       1.8589295     0.060090283
      4559.95       1.8362551     0.059653447
      4564.51       1.8336474     0.059394668
      4569.08       1.8386769     0.059342812
      4573.65       1.8446255     0.059385368
      4578.22       1.7998321     0.059505752
      4582.80       1.7808367     0.060899364
      4587.38       1.7166801     0.061300283
      4591.97       1.6565823     0.061706970
      4596.56       1.6579958     0.062084290
      4601.16       1.6005898     0.062476299
      4605.76       1.5656091     0.062807776
      4610.37       1.5406676     0.062988370
      4614.98       1.5293906     0.063173222
      4619.59       1.5063061     0.063425860
      4624.21       1.5050177     0.062330339
      4628.84       1.4728253     0.062213617
      4633.47       1.4414987     0.061951944
      4638.10       1.4534081     0.061536851
      4642.74       1.4218811     0.061190857
      4647.38       1.4139037     0.060964985
