# starting wavelength =        2541.6700
# ending wavelength =        7816.3600
# O2 telluric scale =        0
# O2 telluric shift =        0
# H2O telluric scale =        0
# H2O telluric shift =        0
      2543.59       2.8124039     0.062972090
      2546.13       2.6831268     0.057805263
      2548.68       2.5491849     0.052960072
      2551.23       2.4306563     0.048874822
      2553.78       2.3484916     0.045477824
      2556.34       2.2873600     0.042212811
      2558.89       2.2324503     0.039079470
      2561.45       2.1774887     0.036488468
      2564.01       2.1242596     0.034316126
      2566.58       2.0775593     0.032240364
      2569.14       2.0411186     0.030223032
      2571.71       2.0116735     0.028597151
      2574.28       1.9854878     0.027152086
      2576.86       1.9604117     0.025934486
      2579.44       1.9421201     0.024792036
      2582.01       1.9339845     0.023663351
      2584.60       1.9398948     0.022778764
      2587.18       1.9537978     0.022003725
      2589.77       1.9695684     0.021363081
      2592.36       1.9868119     0.020761340
      2594.95       2.0022610     0.020238084
      2597.55       2.0173688     0.019712446
      2600.14       2.0351366     0.019320778
      2602.74       2.0552961     0.019009155
      2605.35       2.0798630     0.018716152
      2607.95       2.1084713     0.018462375
      2610.56       2.1392096     0.018202381
      2613.17       2.1722236     0.018020986
      2615.79       2.2083500     0.017865219
      2618.40       2.2445010     0.017753899
      2621.02       2.2814138     0.017642256
      2623.64       2.3182173     0.017546756
      2626.26       2.3559272     0.017466817
      2628.89       2.3920324     0.017378163
      2631.52       2.4319419     0.017322322
      2634.15       2.4768522     0.017275369
      2636.79       2.5194815     0.017253921
      2639.42       2.5680537     0.017217803
      2642.06       2.6161056     0.017236355
      2644.70       2.6656761     0.017355720
      2647.35       2.7161245     0.017453577
      2650.00       2.7680295     0.017527844
      2652.65       2.8186467     0.017636609
      2655.30       2.8662247     0.017723815
      2657.96       2.9038605     0.017801892
      2660.61       2.9457105     0.017887433
      2663.27       2.9866605     0.017925948
      2665.94       3.0293825     0.017971570
      2668.60       3.0842678     0.018032923
      2671.27       3.1401933     0.018051975
      2673.94       3.1954905     0.018040764
      2676.62       3.2495938     0.018046860
      2679.29       3.3065130     0.018014578
      2681.97       3.3429338     0.017952554
      2684.66       3.3811719     0.017938698
      2687.34       3.4141657     0.017840043
      2690.03       3.4458890     0.017746379
      2692.72       3.4691593     0.017611814
      2695.41       3.4875411     0.017450237
      2698.11       3.5008413     0.017287370
      2700.81       3.5234048     0.017133588
      2703.51       3.5345722     0.016927720
      2706.21       3.5445134     0.016688137
      2708.92       3.5662814     0.016431051
      2711.62       3.5968553     0.016167229
      2714.34       3.6241436     0.015878778
      2717.05       3.6520935     0.015584648
      2719.77       3.6879763     0.015276811
      2722.49       3.7123041     0.014962063
      2725.21       3.7353466     0.014694063
      2727.94       3.7495263     0.014367459
      2730.66       3.7600052     0.014035652
      2733.39       3.7751400     0.013705517
      2736.13       3.7921334     0.013385166
      2738.86       3.8038884     0.013059326
      2741.60       3.8174682     0.012737281
      2744.34       3.8294223     0.012420628
      2747.09       3.8355044     0.012122971
      2749.84       3.8438378     0.011819358
      2752.59       3.8472983     0.011522580
      2755.34       3.8563400     0.011232626
      2758.09       3.8681566     0.010966917
      2760.85       3.8851456     0.010692637
      2763.61       3.8971884     0.010425364
      2766.38       3.9081309     0.010166085
      2769.14       3.9125094    0.0099325922
      2771.91       3.9229734    0.0096883213
      2774.69       3.9349646    0.0094520182
      2777.46       3.9457432    0.0092237313
      2780.24       3.9559651    0.0090212061
      2783.02       3.9714026    0.0088088513
      2785.80       3.9851590    0.0086049511
      2788.59       3.9936217    0.0084094465
      2791.38       4.0066185    0.0082234019
      2794.17       4.0179597    0.0080621522
      2796.96       4.0313707    0.0078940074
      2799.76       4.0424119    0.0077362044
      2802.56       4.0504595    0.0075886449
      2805.36       4.0609638    0.0074409610
      2808.17       4.0702363    0.0073153591
      2810.98       4.0789678    0.0072010960
      2813.79       4.0880529    0.0070980291
      2816.60       4.1005765    0.0070123140
      2819.42       4.1109270    0.0069309471
      2822.24       4.1220081    0.0068610709
      2825.06       4.1315750    0.0068013825
      2827.88       4.1406688    0.0067542867
      2830.71       4.1502139    0.0067118373
      2833.54       4.1584586    0.0066849479
      2836.38       4.1640581    0.0066707178
      2839.21       4.1676964    0.0066668202
      2842.05       4.1702936    0.0066656948
      2844.90       4.1756271    0.0066797500
      2847.74       4.1802992    0.0067036202
      2850.59       4.1848401    0.0067361201
      2853.44       4.1878439    0.0067647767
      2856.29       4.1897235    0.0068115313
      2859.15       4.1887844    0.0068649056
      2862.01       4.1864982    0.0069148568
      2864.87       4.1855720    0.0069798137
      2867.74       4.1829823    0.0070500115
      2870.60       4.1790692    0.0071245677
      2873.47       4.1758710    0.0071955540
      2876.35       4.1701843    0.0072744258
      2879.22       4.1668690    0.0073592786
      2882.10       4.1623951    0.0074467806
      2884.99       4.1576680    0.0075273850
      2887.87       4.1529309    0.0076156752
      2890.76       4.1504121    0.0077083665
      2893.65       4.1465174    0.0078024409
      2896.54       4.1425920    0.0079019821
      2899.44       4.1383585    0.0079779664
      2902.34       4.1264323    0.0080733890
      2905.24       4.1199160    0.0081688203
      2908.15       4.1128740    0.0082667999
      2911.06       4.1077485    0.0083612136
      2913.97       4.0788735     0.016156869
      2916.88       4.0492561     0.016447297
      2919.80       4.0239592     0.016806493
      2922.72       4.0008195     0.017071565
      2925.64       3.9839105     0.017361512
      2928.57       3.9701593     0.017677721
      2931.50       3.9456619     0.017894215
      2934.43       3.9215688     0.018091025
      2937.36       3.9043210     0.018344574
      2940.30       3.8848858     0.018496566
      2943.24       3.8812590     0.018702158
      2946.18       3.8649524     0.018864244
      2949.13       3.8642599     0.018948342
      2952.08       3.8672072     0.019081494
      2955.03       3.8672291     0.019117766
      2957.99       3.8847660     0.019199047
      2960.94       3.9007048     0.019189590
      2963.90       3.9097158     0.019224889
      2966.87       3.9104729     0.019172838
      2969.84       3.9135695     0.019164223
      2972.81       3.9190422     0.019073242
      2975.78       3.9282227     0.019024176
      2978.76       3.9284899     0.018976312
      2981.73       3.9118302     0.018893422
      2984.72       3.8966155     0.018737365
      2987.70       3.9115460     0.018620516
      2990.69       3.9188606     0.018436428
      2993.68       3.9348359     0.018292706
      2996.67       3.9442081     0.018086095
      2999.67       3.9580061     0.017916714
      3002.67       3.9658168     0.017689436
      3005.67       3.9723027     0.017501558
      3008.68       3.9801764     0.017259913
      3011.69       3.9661464     0.017054058
      3014.70       3.9537904     0.016842944
      3017.71       3.9491128     0.016584481
      3020.73       3.9279117     0.016362394
      3023.75       3.9212154     0.016097358
      3026.78       3.9118139     0.015871715
      3029.80       3.8982578     0.015642729
      3032.83       3.8907903     0.015375803
      3035.87       3.8796327     0.015149467
      3038.90       3.8715653     0.014888136
      3041.94       3.8464110     0.014663606
      3044.98       3.8314323     0.014446123
      3048.03       3.8173683     0.014198119
      3051.08       3.8119765     0.013916261
      3054.13       3.7900060     0.013716556
      3057.18       3.7701482     0.013490556
      3060.24       3.7648100     0.013309099
      3063.30       3.7518256     0.013136197
      3066.36       3.7225511     0.012939314
      3069.43       3.6917770     0.012725923
      3072.50       3.6653548     0.012552387
      3075.57       3.6455865     0.012331397
      3078.65       3.6247157     0.012218066
      3081.73       3.6003871     0.012024738
      3084.81       3.5844549     0.011900345
      3087.89       3.5663131     0.011768479
      3090.98       3.5572095     0.011666615
      3094.07       3.5351262     0.011523600
      3097.17       3.5146960     0.011479339
      3100.26       3.5019469     0.011358521
      3103.36       3.4754463     0.011334567
      3106.47       3.4660851     0.011234552
      3109.58       3.4348049     0.011228870
      3112.68       3.4113466     0.011146970
      3115.80       3.3827738     0.011074369
      3118.91       3.3654341     0.011092805
      3122.03       3.3481101     0.011035139
      3125.15       3.3240598     0.011067184
      3128.28       3.3081284     0.011022769
      3131.41       3.3049951     0.011067226
      3134.54       3.2972190     0.011033732
      3137.67       3.2898060     0.011047803
      3140.81       3.2756499     0.011063788
      3143.95       3.2689125     0.011086659
      3147.10       3.2620450     0.011069571
      3150.24       3.2639508     0.011138332
      3153.39       3.2576332     0.011125761
      3156.55       3.2624928     0.011199539
      3159.70       3.2682107     0.011189243
      3162.86       3.2530805     0.011225689
      3166.03       3.2591465     0.011255720
      3169.19       3.2443692     0.011291793
      3172.36       3.2480189     0.011281137
      3175.54       3.2392812     0.011314109
      3178.71       3.2334722     0.011340637
      3181.89       3.2265898     0.011368666
      3185.07       3.2240209     0.011393710
      3188.26       3.2186231     0.011411579
      3191.45       3.2201779     0.011428268
      3194.64       3.2015445     0.011395662
      3197.83       3.1848370     0.011402713
      3201.03       3.1766730     0.011446423
      3204.23       3.1676251     0.011398052
      3207.44       3.1694522     0.011387294
      3210.64       3.1728448     0.011328367
      3213.85       3.1725317     0.011348967
      3217.07       3.1780315     0.011320005
      3220.28       3.1850244     0.011244886
      3223.51       3.1836370     0.011203786
      3226.73       3.2039418     0.011157338
      3229.96       3.2137197     0.011113029
      3233.19       3.2282564     0.011056217
      3236.42       3.2349047     0.010994417
      3239.66       3.2415112     0.010891732
      3242.90       3.2581484     0.010821844
      3246.14       3.2732419     0.010793501
      3249.39       3.2894016     0.010715141
      3252.64       3.2975953     0.010598993
      3255.89       3.2995516     0.010514620
      3259.14       3.3090045     0.010427277
      3262.40       3.3091073     0.010304937
      3265.67       3.3064467     0.010212173
      3268.93       3.3057998     0.010117330
      3272.20       3.2942457     0.010064361
      3275.47       3.2894798    0.0099658665
      3278.75       3.2860056    0.0098364244
      3282.03       3.2685027    0.0097353151
      3285.31       3.2579207    0.0096333018
      3288.60       3.2457307    0.0095307785
      3291.88       3.2235402    0.0094000539
      3295.18       3.2076554    0.0092975071
      3298.47       3.1868756    0.0091949720
      3301.77       3.1727395    0.0090928505
      3305.07       3.1555872    0.0089915838
      3308.38       3.1413871    0.0088911188
      3311.69       3.1271807    0.0087664922
      3315.00       3.1094853    0.0086686005
      3318.31       3.0977607    0.0085724442
      3321.63       3.0769096    0.0084783596
      3324.95       3.0546171    0.0083863576
      3328.28       3.0404620    0.0082965207
      3331.61       3.0372464    0.0082090211
      3334.94       3.0279230    0.0081005995
      3338.27       3.0235756    0.0080187036
      3341.61       3.0102440    0.0079395014
      3344.95       3.0054842    0.0078629336
      3348.30       3.0008331    0.0077891759
      3351.65       2.9876109    0.0077180948
      3355.00       2.9729849    0.0076499042
      3358.35       2.9643594    0.0075843194
      3361.71       2.9578599    0.0075213853
      3365.07       2.9520817    0.0074611002
      3368.44       2.9427788    0.0074033699
      3371.81       2.9378540    0.0073189257
      3375.18       2.9282650    0.0072667367
      3378.56       2.9258165    0.0072170777
      3381.94       2.9256045    0.0071697573
      3385.32       2.9141039    0.0071248223
      3388.70       2.9074247    0.0070823061
      3392.09       2.9029014    0.0070422352
      3395.48       2.8869375    0.0070043758
      3398.88       2.8707371    0.0069421391
      3402.28       2.8608649    0.0069087945
      3405.68       2.8493733    0.0068776216
      3409.09       2.8417604    0.0068486051
      3412.49       2.8274749    0.0068216734
      3415.91       2.8158611    0.0067717857
      3419.32       2.8050192    0.0067491448
      3422.74       2.7998559    0.0067285202
      3426.17       2.7970659    0.0067097396
      3429.59       2.7970743    0.0066929281
      3433.02       2.7955702    0.0066537404
      3436.45       2.7901231    0.0066404844
      3439.89       2.7887613    0.0066290642
      3443.33       2.7904486    0.0066419698
      3446.78       2.7873495    0.0066109510
      3450.22       2.7819818    0.0066045253
      3453.67       2.7786900    0.0065997300
      3457.13       2.7705729    0.0065965346
      3460.58       2.7564501    0.0065726424
      3464.04       2.7465960    0.0065726771
      3467.51       2.7379102    0.0065966860
      3470.98       2.7262470    0.0065771617
      3474.45       2.7089851    0.0065812580
      3477.92       2.6956612    0.0065866628
      3481.40       2.6851428    0.0065710582
      3484.88       2.6695418    0.0065784635
      3488.37       2.6622280    0.0066105176
      3491.86       2.6589615    0.0065983035
      3495.35       2.6541331    0.0066084422
      3498.84       2.6438496    0.0066197668
      3502.34       2.6339732    0.0066341935
      3505.84       2.6232510    0.0066467036
      3509.35       2.6167256    0.0066385142
      3512.86       2.6121897    0.0066524310
      3516.37       2.6079573    0.0066905159
      3519.89       2.5965217    0.0066837376
      3523.41       2.5901223    0.0066989215
      3526.93       2.5799917    0.0066925260
      3530.46       2.5746894    0.0067320445
      3533.99       2.5698486    0.0067260462
      3537.53       2.5609043    0.0067412110
      3541.06       2.5511284    0.0067596344
      3544.60       2.5473224    0.0067747310
      3548.15       2.5406198    0.0067898190
      3551.70       2.5278472    0.0068073133
      3555.25       2.5218439    0.0068216460
      3558.80       2.5191304    0.0068140475
      3562.36       2.5062896    0.0068515865
      3565.92       2.5017982    0.0068427060
      3569.49       2.4876933    0.0068553734
      3573.06       2.4762511    0.0068686660
      3576.64       2.4699131    0.0068573068
      3580.21       2.4591133    0.0068910931
      3583.79       2.4391929    0.0068777330
      3587.38       2.4268852    0.0068854250
      3590.96       2.4185168    0.0068938214
      3594.55       2.4097983    0.0068994087
      3598.15       2.4060767    0.0069053506
      3601.75       2.3968803    0.0068861493
      3605.35       2.3909877    0.0069118862
      3608.96       2.3882858    0.0068902261
      3612.56       2.3919066    0.0068906075
      3616.18       2.3954533    0.0068895689
      3619.79       2.3927489    0.0068646600
      3623.41       2.3964627    0.0068844045
      3627.04       2.4020299    0.0068572755
      3630.66       2.3939253    0.0068521028
      3634.29       2.3997525    0.0068457906
      3637.93       2.3918025    0.0068385196
      3641.57       2.3869973    0.0068081079
      3645.21       2.3795826    0.0068215279
      3648.86       2.3702679    0.0067897049
      3652.50       2.3583165    0.0067786614
      3656.16       2.3460215    0.0067898603
      3659.81       2.3386503    0.0067558520
      3663.47       2.3300854    0.0067427442
      3667.14       2.3189512    0.0067307298
      3670.80       2.3067239    0.0067163130
      3674.48       2.3022297    0.0066803525
      3678.15       2.3027780    0.0066652726
      3681.83       2.3031966    0.0066722238
      3685.51       2.3006231    0.0066351858
      3689.20       2.2958074    0.0066189660
      3692.88       2.2922843    0.0066026594
      3696.58       2.2925684    0.0065652839
      3700.27       2.2812722    0.0065704709
      3703.98       2.2759435    0.0065334057
      3707.68       2.2586174    0.0065161164
      3711.39       2.2440315    0.0064988965
      3715.10       2.2245543    0.0064617650
      3718.81       2.2141762    0.0064665546
      3722.53       2.2025137    0.0064493969
      3726.26       2.1967263    0.0064125718
      3729.98       2.1890514    0.0063958873
      3733.71       2.1741003    0.0063794429
      3737.45       2.1653810    0.0063632553
      3741.18       2.1626632    0.0063275959
      3744.93       2.1610957    0.0063116691
      3748.67       2.1620516    0.0063168631
      3752.42       2.1624423    0.0063013724
      3756.17       2.1635351    0.0062670157
      3759.93       2.1625212    0.0062518726
      3763.69       2.1666272    0.0062370001
      3767.45       2.1730145    0.0062224133
      3771.22       2.1709927    0.0061890563
      3774.99       2.1728004    0.0061749535
      3778.77       2.1677541    0.0061611104
      3782.54       2.1711184    0.0061474915
      3786.33       2.1700923    0.0061341248
      3790.11       2.1833735    0.0061210017
      3793.90       2.1934364    0.0060893424
      3797.70       2.1989262    0.0060766538
      3801.50       2.1984323    0.0060641533
      3805.30       2.2001557    0.0060518405
      3809.10       2.2066701    0.0060398307
      3812.91       2.2052630    0.0060280547
      3816.73       2.1998182    0.0060164642
      3820.54       2.1930124    0.0059867908
      3824.36       2.1842755    0.0059756718
      3828.19       2.1690217    0.0059647884
      3832.02       2.1512547    0.0059541319
      3835.85       2.1357448    0.0059436777
      3839.68       2.1178842    0.0059335107
      3843.52       2.1030062    0.0059235102
      3847.37       2.0836155    0.0058950035
      3851.22       2.0757342    0.0058855337
      3855.07       2.0608093    0.0058762212
      3858.92       2.0512930    0.0058670642
      3862.78       2.0437978    0.0058581613
      3866.64       2.0343763    0.0058494324
      3870.51       2.0239147    0.0058408242
      3874.38       2.0142089    0.0058140070
      3878.26       2.0077528    0.0058055822
      3882.13       2.0037171    0.0057972463
      3886.02       1.9952351    0.0057889743
      3889.90       1.9951108    0.0057807627
      3893.79       1.9959253    0.0057545352
      3897.69       1.9942163    0.0057463353
      3901.59       1.9870077    0.0057380647
      3905.49       1.9818531    0.0057297803
