# starting wavelength =        3002.6800
# ending wavelength =        7438.5800
# O2 telluric scale =        0
# O2 telluric shift =        0
# H2O telluric scale =        0
# H2O telluric shift =        0
      3005.67       7.3773594     0.079218482
      3008.68       7.4636395     0.067495682
      3011.69       7.5182573     0.058365569
      3014.70       7.5499973     0.053101636
      3017.71       7.5635162     0.047106817
      3020.73       7.5623913     0.042462391
      3023.75       7.5501370     0.038854014
      3026.78       7.5289596     0.036044886
      3029.80       7.5030140     0.033898764
      3032.83       7.4793347     0.032147959
      3035.87       7.4595774     0.030590705
      3038.90       7.4453376     0.029540031
      3041.94       7.4346275     0.028664593
      3044.98       7.4066361     0.027923445
      3048.03       7.3584410     0.027287700
      3051.08       7.2944542     0.026735280
      3054.13       7.2212602     0.026240659
      3057.18       7.1673033     0.025993966
      3060.24       7.0960158     0.025747439
      3063.30       7.0167691     0.025667617
      3066.36       6.9366461     0.025591942
      3069.43       6.8570886     0.025514439
      3072.50       6.7782804     0.025436135
      3075.57       6.7008596     0.025361820
      3078.65       6.6311821     0.025280637
      3081.73       6.5804169     0.025392337
      3084.81       6.5321235     0.025318369
      3087.89       6.4883195     0.025239794
      3090.98       6.4500941     0.025325365
      3094.07       6.4194228     0.025250231
      3097.17       6.3910999     0.025172801
      3100.26       6.3732841     0.025097207
      3103.36       6.3569008     0.025020507
      3106.47       6.3389793     0.025134923
      3109.58       6.3279416     0.025058418
      3112.68       6.3089938     0.024982257
      3115.80       6.2927768     0.024905583
      3118.91       6.2749772     0.024828598
      3122.03       6.2688721     0.024917818
      3125.15       6.2638231     0.024840814
      3128.28       6.2688812     0.024762744
      3131.41       6.2797937     0.024688267
      3134.54       6.3018069     0.024612530
      3137.67       6.3276874     0.024729345
      3140.81       6.3601076     0.024655119
      3143.95       6.3914641     0.024578352
      3147.10       6.4137326     0.024501030
      3150.24       6.4163774     0.024596230
      3153.39       6.3950602     0.024516237
      3156.55       6.3688651     0.024440454
      3159.70       6.3560084     0.024368430
      3162.86       6.3496986     0.024289849
      3166.03       6.3469870     0.024215699
      3169.19       6.3354960     0.024139700
      3172.36       6.3211241     0.024233272
      3175.54       6.2995833     0.024358330
      3178.71       6.2724545     0.024283203
      3181.89       6.2469118     0.024206479
      3185.07       6.2274616     0.024132437
      3188.26       6.2160029     0.024058049
      3191.45       6.2039266     0.024150820
      3194.64       6.1915752     0.024073012
      3197.83       6.1794337     0.023995685
      3201.03       6.1715536     0.023921370
      3204.23       6.1679403     0.023845480
      3207.44       6.1660019     0.023770309
      3210.64       6.1534838     0.023868697
      3213.85       6.1477685     0.023795048
      3217.07       6.1442007     0.023721917
      3220.28       6.1559859     0.023645137
      3223.51       6.1718679     0.023572496
      3226.73       6.2001246     0.023674383
      3229.96       6.2209619     0.023801220
      3233.19       6.2492117     0.023729914
      3236.42       6.2646696     0.023653683
      3239.66       6.2631457     0.023578142
      3242.90       6.2597956     0.023509017
      3246.14       6.2548432     0.023601748
      3249.39       6.2456943     0.023528189
      3252.64       6.2348028     0.023453714
      3255.89       6.2317580     0.023375732
      3259.14       6.2208684     0.023488667
      3262.40       6.1886649     0.023416723
      3265.67       6.1444778     0.023341923
      3268.93       6.0935231     0.023266680
      3272.20       6.0303579     0.023192850
      3275.47       5.9685467     0.023298441
      3278.75       5.9137953     0.023222337
      3282.03       5.8740141     0.023147095
      3285.31       5.8325547     0.023071816
      3288.60       5.7848560     0.023188709
      3291.88       5.7319469     0.023111109
      3295.18       5.6722486     0.023036171
      3298.47       5.6109959     0.022966173
      3301.77       5.5525953     0.023077598
      3305.07       5.5060838     0.023001279
      3308.38       5.4715924     0.022930223
      3311.69       5.4456300     0.022850531
      3315.00       5.4170378     0.022974742
      3318.31       5.3793772     0.022896333
      3321.63       5.3348178     0.022820887
      3324.95       5.2929112     0.022753183
      3328.28       5.2588707     0.022870481
      3331.61       5.2344350     0.022794914
      3334.94       5.2021583     0.022717744
      3338.27       5.1693039     0.022841105
      3341.61       5.1365833     0.022767213
      3344.95       5.0954433     0.022695012
      3348.30       5.0566307     0.022620257
      3351.65       5.0338383     0.022748346
      3355.00       5.0080074     0.022674888
      3358.35       4.9953064     0.022595925
      3361.71       4.9920746     0.022730186
      3365.07       4.9751641     0.022657108
      3368.44       4.9486353     0.022580822
      3371.81       4.9206678     0.022511316
      3375.18       4.8921875     0.022639071
      3378.56       4.8788711     0.022559494
      3381.94       4.8678274     0.022488785
      3385.32       4.8619347     0.022629609
      3388.70       4.8665530     0.022555918
      3392.09       4.8549680     0.022487583
      3395.48       4.8396052     0.022619845
      3398.88       4.8275295     0.022542297
      3402.28       4.8118567     0.022468279
      3405.68       4.7958220     0.022623561
      3409.09       4.7713114     0.022549220
      3412.49       4.7574921     0.022217874
      3415.91       4.7321280     0.022366401
      3419.32       4.7123840     0.022292561
      3422.74       4.6959045     0.022219089
      3426.17       4.6915630     0.022372246
      3429.59       4.6785378     0.022296198
      3433.02       4.6793397     0.022215708
      3436.45       4.6733064     0.022378092
      3439.89       4.6655490     0.022302272
      3443.33       4.6720166     0.022226223
      3446.78       4.6927496     0.022387492
      3450.22       4.6981712     0.022302643
      3453.67       4.7109944     0.021969906
      3457.13       4.7175031     0.021899334
      3460.58       4.7071264     0.022054718
      3464.04       4.6955601     0.021981566
      3467.51       4.6793657     0.021646949
      3470.98       4.6480096     0.021574598
      3474.45       4.6188548     0.021512336
      3477.92       4.5951789     0.021656214
      3481.40       4.5752459     0.021335599
      3484.88       4.5397839     0.021254351
      3488.37       4.5210157     0.021184402
      3491.86       4.4948492     0.021124172
      3495.35       4.4610425     0.021009530
      3498.84       4.4275088     0.020940544
      3502.34       4.3946682     0.020868066
      3505.84       4.3763112     0.020803289
      3509.35       4.3471554     0.020701081
      3512.86       4.3164933     0.020625790
      3516.37       4.2929282     0.020562344
      3519.89       4.2678096     0.020249274
      3523.41       4.2508210     0.020393231
      3526.93       4.2254063     0.020321703
      3530.46       4.2056319     0.020250980
      3533.99       4.1782003     0.019945441
      3537.53       4.1416812     0.020082331
      3541.06       4.1171330     0.020013597
      3544.60       4.0946274     0.019718105
      3548.15       4.0743314     0.019641083
      3551.70       4.0545194     0.019786459
      3555.25       4.0366182     0.019488478
      3558.80       4.0043493     0.019414535
      3562.36       3.9711042     0.019346749
      3565.92       3.9469372     0.019483836
      3569.49       3.9306766     0.019194060
      3573.06       3.9162674     0.019118091
      3576.64       3.8910021     0.019052627
      3580.21       3.8795518     0.018971064
      3583.79       3.8791190     0.018897134
      3587.38       3.8724024     0.018832115
      3590.96       3.8669398     0.018752486
      3594.55       3.8614007     0.018681575
      3598.15       3.8539993     0.018608111
      3601.75       3.8431812     0.018338135
      3605.35       3.8247487     0.018460554
      3608.96       3.8153726     0.018387611
      3612.56       3.8060819     0.018118626
      3616.18       3.7966941     0.018240099
      3619.79       3.7930601     0.018172828
      3623.41       3.7826076     0.017908554
      3627.04       3.7714651     0.017848776
      3630.66       3.7677358     0.017962001
      3634.29       3.7724049     0.017697672
      3637.93       3.7720895     0.017641588
      3641.57       3.7843692     0.017548954
      3645.21       3.7833392     0.017486756
      3648.86       3.7864398     0.017429395
      3652.50       3.7923926     0.017338920
      3656.16       3.7887760     0.017276361
      3659.81       3.7821710     0.017222201
      3663.47       3.7940925     0.017134422
      3667.14       3.7869017     0.017074859
      3670.80       3.7811540     0.016821911
      3674.48       3.7701620     0.016930342
      3678.15       3.7681550     0.016872423
      3681.83       3.7565441     0.016619570
      3685.51       3.7431136     0.016726905
      3689.20       3.7268038     0.016670405
      3692.88       3.7007605     0.016418239
      3696.58       3.6820119     0.016526157
      3700.27       3.6585402     0.016282771
      3703.98       3.6405135     0.016223204
      3707.68       3.6264896     0.016331254
      3711.39       3.6175499     0.016086645
      3715.10       3.5937707     0.016189722
      3718.81       3.5798899     0.015952946
      3722.53       3.5703471     0.015892960
      3726.26       3.5578159     0.015823180
      3729.98       3.5480233     0.015758969
      3733.71       3.5349811     0.015701887
      3737.45       3.5261578     0.015629721
      3741.18       3.5186904     0.015568396
      3744.93       3.5081796     0.015501024
      3748.67       3.4940600     0.015438455
      3752.42       3.4810181     0.015380193
      3756.17       3.4734048     0.015308433
      3759.93       3.4643077     0.015249660
      3763.69       3.4494863     0.015031007
      3767.45       3.4416034     0.015119267
      3771.22       3.4304832     0.014899622
      3774.99       3.4332399     0.014991974
      3778.77       3.4320097     0.014773623
      3782.54       3.4242925     0.014725689
      3786.33       3.4059021     0.014648763
      3790.11       3.3999871     0.014597371
      3793.90       3.3985935     0.014683791
      3797.70       3.3886682     0.014471044
      3801.50       3.3753677     0.014425230
      3805.30       3.3587025     0.014345448
      3809.10       3.3490953     0.014299515
      3812.91       3.3314650     0.014220410
      3816.73       3.3173039     0.014172811
      3820.54       3.3004982     0.014100914
      3824.36       3.2978206     0.014051049
      3828.19       3.2958610     0.013849381
      3832.02       3.2901651     0.013929705
      3835.85       3.2731220     0.013731409
      3839.68       3.2703144     0.013809337
      3843.52       3.2703753     0.013613245
      3847.37       3.2699720     0.013690729
      3851.22       3.2630696     0.013494194
      3855.07       3.2621600     0.013574656
      3858.92       3.2588146     0.013377325
      3862.78       3.2527697     0.013328605
      3866.64       3.2500877     0.013261917
      3870.51       3.2444227     0.013212632
      3874.38       3.2333201     0.013148135
      3878.26       3.2255142     0.013097152
      3882.13       3.2176522     0.013035389
      3886.02       3.2150236     0.012984285
      3889.90       3.2179774     0.012924414
      3893.79       3.2096115     0.012871777
      3897.69       3.2114706     0.012815225
      3901.59       3.2045992     0.012760989
      3905.49       3.1946712     0.012704840
      3909.39       3.1812756     0.012651478
      3913.30       3.1780336     0.012593864
      3917.22       3.1711852     0.012542123
      3921.13       3.1740747     0.012482019
      3925.06       3.1754439     0.012303450
      3928.98       3.1875830     0.012371998
      3932.91       3.1862673     0.012199062
      3936.84       3.1892808     0.012265415
      3940.78       3.1907481     0.012096032
      3944.72       3.1906816     0.012158834
      3948.67       3.1886020     0.011990253
      3952.61       3.1892708     0.012053417
      3956.57       3.2032135     0.011886505
      3960.52       3.2213959     0.011824747
      3964.48       3.2265264     0.011782750
      3968.45       3.2306382     0.011721485
      3972.42       3.2299576     0.011680307
      3976.39       3.2304427     0.011621707
      3980.37       3.2304754     0.011581997
      3984.35       3.2242047     0.011523848
      3988.33       3.2173706     0.011358512
      3992.32       3.2054611     0.011423269
      3996.31       3.1960051     0.011259651
      4000.31       3.1755788     0.011324838
      4004.31       3.1583859     0.011264932
      4008.31       3.1256896     0.011108824
      4012.32       3.0923867     0.011168973
      4016.33       3.0477534     0.011010764
      4020.35       3.0063133     0.011073173
      4024.37       2.9674849     0.010914160
      4028.40       2.9261113     0.010864834
      4032.42       2.8884260     0.010819767
      4036.46       2.8410591     0.010767908
      4040.50       2.7981659     0.010719005
      4044.54       2.7558946     0.010675496
      4048.58       2.7114170     0.010623855
      4052.63       2.6740080     0.010581938
      4056.68       2.6349210     0.010530984
      4060.74       2.5937766     0.010386969
      4064.80       2.5499121     0.010439294
      4068.86       2.5097534     0.010389831
      4072.93       2.4732645     0.010246302
      4077.01       2.4341776     0.010297724
      4081.08       2.3970435     0.010157175
      4085.17       2.3614622     0.010106496
      4089.25       2.3303030     0.010159517
      4093.34       2.3107176     0.010020631
      4097.43       2.2945352     0.010072847
      4101.53       2.2787218    0.0099368714
      4105.63       2.2706322    0.0098847236
      4109.74       2.2623480    0.0099358480
      4113.85       2.2618705    0.0098029523
      4117.96       2.2631796    0.0097519370
      4122.08       2.2702999    0.0097209417
      4126.20       2.2742624    0.0096690970
      4130.33       2.2786716    0.0096210422
      4134.46       2.2857217    0.0095889402
      4138.59       2.2901824    0.0095399343
      4142.73       2.2932282    0.0094929275
      4146.88       2.3035610    0.0093638864
      4151.02       2.3087167    0.0094117239
      4155.18       2.3146211    0.0093655645
      4159.33       2.3246798    0.0092385363
      4163.49       2.3310076    0.0092862411
      4167.65       2.3499332    0.0091586888
      4171.82       2.3674988    0.0091149840
      4175.99       2.3820101    0.0091620411
      4180.17       2.3954318    0.0090370513
      4184.35       2.4152617    0.0089930758
      4188.54       2.4285586    0.0089521817
      4192.72       2.4462188    0.0089159626
      4196.92       2.4655556    0.0088746525
      4201.11       2.4882011    0.0088329185
      4205.31       2.4951770    0.0087157790
      4209.52       2.5028500    0.0087578521
      4213.73       2.5167262    0.0087168898
      4217.94       2.5206067    0.0086005180
      4222.16       2.5239312    0.0086413430
      4226.38       2.5234463    0.0086017736
      4230.61       2.5193363    0.0085619603
      4234.84       2.5131389    0.0084462098
      4239.08       2.5065865    0.0084867290
      4243.32       2.4926383    0.0084484419
      4247.56       2.4816403    0.0083360613
      4251.81       2.4635327    0.0082978219
      4256.06       2.4449571    0.0083378867
      4260.32       2.4299666    0.0082311732
      4264.58       2.4123150    0.0081892363
      4268.84       2.3888638    0.0081517744
      4273.11       2.3766910    0.0081916618
      4277.38       2.3664101    0.0080862233
      4281.66       2.3559120    0.0080452781
      4285.94       2.3445653    0.0080082396
      4290.23       2.3368923    0.0079018597
      4294.52       2.3328610    0.0079452061
      4298.81       2.3241857    0.0079057753
      4303.11       2.3170412    0.0078694507
      4307.42       2.3140541    0.0077646983
      4311.72       2.3125281    0.0077316638
      4316.04       2.3084513    0.0077694832
      4320.35       2.3023675    0.0077338891
      4324.67       2.3010585    0.0076314739
      4329.00       2.3003399    0.0075982676
      4333.33       2.2995612    0.0075624448
      4337.66       2.2974986    0.0076017154
      4342.00       2.2988441    0.0075009165
      4346.34       2.2955730    0.0074681431
      4350.69       2.2908771    0.0074331256
      4355.04       2.2898453    0.0074028364
      4359.39       2.2842223    0.0073064158
      4363.75       2.2837313    0.0073427307
      4368.12       2.2877117    0.0073085714
      4372.48       2.2864265    0.0072776352
      4376.86       2.2834773    0.0072443539
      4381.23       2.2843761    0.0071531491
      4385.61       2.2842660    0.0071201590
      4390.00       2.2776224    0.0071558881
      4394.39       2.2721862    0.0071228597
      4398.79       2.2655831    0.0070938403
      4403.18       2.2542810    0.0070032277
      4407.59       2.2470000    0.0069732388
      4412.00       2.2329485    0.0069418850
      4416.41       2.2159520    0.0069124436
      4420.82       2.1993874    0.0069458666
      4425.25       2.1837172    0.0068618691
      4429.67       2.1596557    0.0068306427
      4434.10       2.1305643    0.0068012205
      4438.54       2.1033903    0.0067707878
      4442.97       2.0812809    0.0067428597
      4447.42       2.0660332    0.0066582448
      4451.86       2.0532438    0.0066307450
      4456.32       2.0366697    0.0066655377
      4460.77       2.0251193    0.0066373109
      4465.24       2.0183686    0.0066081837
      4469.70       2.0129770    0.0065814544
      4474.17       2.0033876    0.0065534776
      4478.65       1.9994671    0.0064731682
      4483.12       1.9937287    0.0064458955
      4487.61       1.9889278    0.0064196256
      4492.09       1.9777967    0.0063935467
      4496.59       1.9660801    0.0063685271
      4501.08       1.9516025    0.0063435861
      4505.58       1.9432426    0.0063216295
      4510.09       1.9292540    0.0062961006
      4514.60       1.9096519    0.0062712786
      4519.12       1.8937156    0.0062467395
      4523.63       1.8815761    0.0062220170
      4528.16       1.8724913    0.0061978917
      4532.69       1.8639717    0.0061733297
      4537.22       1.8587956    0.0061501506
      4541.76       1.8516799    0.0060774266
      4546.30       1.8439751    0.0060531347
      4550.85       1.8404968    0.0060295247
      4555.40       1.8407134    0.0060060123
      4559.95       1.8376964    0.0059834042
      4564.51       1.8354835    0.0059605406
      4569.08       1.8317812    0.0059386755
      4573.65       1.8252036    0.0059160552
      4578.22       1.8134767    0.0058942967
      4582.80       1.8056879    0.0058724732
      4587.38       1.8014793    0.0058514423
      4591.97       1.7947346    0.0058363607
      4596.56       1.7871569    0.0058151408
      4601.16       1.7829103    0.0057935208
      4605.76       1.7788007    0.0057729638
      4610.37       1.7738649    0.0057519833
      4614.98       1.7650965    0.0057320872
