# starting wavelength =        3434.9590
# ending wavelength =        7429.3452
# O2 telluric scale =        0
# O2 telluric shift =        0
# H2O telluric scale =        0
# H2O telluric shift =        0
      3436.45       1.2922456     0.042590564
      3439.89       1.3107031     0.043006201
      3443.33       1.3475710     0.042826942
      3446.78       1.3713389     0.042650175
      3450.22       1.3759606     0.042474367
      3453.67       1.3756617     0.042299339
      3457.13       1.3767630     0.042126722
      3460.58       1.3751973     0.041955245
      3464.04       1.3998395     0.042378895
      3467.51       1.3877589     0.042192203
      3470.98       1.3690812     0.042006821
      3474.45       1.3379459     0.041822562
      3477.92       1.3223059     0.041639845
      3481.40       1.3157502     0.041459419
      3484.88       1.3209904     0.041279984
      3488.37       1.3377683     0.041719689
      3491.86       1.3424787     0.041541981
      3495.35       1.3433546     0.041365847
      3498.84       1.3492282     0.041191533
      3502.34       1.3635597     0.041020065
      3505.84       1.3715581     0.040850104
      3509.35       1.3801515     0.040682310
      3512.86       1.3801097     0.041102523
      3516.37       1.3697611     0.040914545
      3519.89       1.3718965     0.040729928
      3523.41       1.3815274     0.040548516
      3526.93       1.3815868     0.040367999
      3530.46       1.3851275     0.040191066
      3533.99       1.4107019     0.040664470
      3537.53       1.4200990     0.040488871
      3541.06       1.4103945     0.040317413
      3544.60       1.3964126     0.040148365
      3548.15       1.3962155     0.039981644
      3551.70       1.4021552     0.039819236
      3555.25       1.3960456     0.040235663
      3558.80       1.3934152     0.040049045
      3562.36       1.3998097     0.039865235
      3565.92       1.4151013     0.038955832
      3569.49       1.4150473     0.038783497
      3573.06       1.4248470     0.038614094
      3576.64       1.4381901     0.039102561
      3580.21       1.4472548     0.038906962
      3583.79       1.4552546     0.038715891
      3587.38       1.4655044     0.038528600
      3590.96       1.4802080     0.038344444
      3594.55       1.4897969     0.038836488
      3598.15       1.4919816     0.038655683
      3601.75       1.4950284     0.038480466
      3605.35       1.5109518     0.038310518
      3608.96       1.5302318     0.038142850
      3612.56       1.5432869     0.037980562
      3616.18       1.5419147     0.038445072
      3619.79       1.5323375     0.038252268
      3623.41       1.5174546     0.038066345
      3627.04       1.5010482     0.037884918
      3630.66       1.5033794     0.037708669
      3634.29       1.5125874     0.038257471
      3637.93       1.5150194     0.038088425
      3641.57       1.5201727     0.037926165
      3645.21       1.5110863     0.036921608
      3648.86       1.5041724     0.036733709
      3652.50       1.4788231     0.037252388
      3656.16       1.4628785     0.037071173
      3659.81       1.4564117     0.036897571
      3663.47       1.4575245     0.036727707
      3667.14       1.4575044     0.036565565
      3670.80       1.4568873     0.037079339
      3674.48       1.4584176     0.036879511
      3678.15       1.4715364     0.036688985
      3681.83       1.5051842     0.036504796
      3685.51       1.5384267     0.037095437
      3689.20       1.5550112     0.036922029
      3692.88       1.5671216     0.036757698
      3696.58       1.5848129     0.036600935
      3700.27       1.6071186     0.036452028
      3703.98       1.6352859     0.036098422
      3707.68       1.6626996     0.035914082
      3711.39       1.6890070     0.035738024
      3715.10       1.7073740     0.035569413
      3718.81       1.7216664     0.035411491
      3722.53       1.7344083     0.035261445
      3726.26       1.7392233     0.034219584
      3729.98       1.7286441     0.034757065
      3733.71       1.7156754     0.034578655
      3737.45       1.6880662     0.034411254
      3741.18       1.6544078     0.034252439
      3744.93       1.6204704     0.034102088
      3748.67       1.5730493     0.033106436
      3752.42       1.5254084     0.033618657
      3756.17       1.4637042     0.033443117
      3759.93       1.4012706     0.033276806
      3763.69       1.3427296     0.033119206
      3767.45       1.2820232     0.032195397
      3771.22       1.2344581     0.032007454
      3774.99       1.1921004     0.031830292
      3778.77       1.1544510     0.032327922
      3782.54       1.1196066     0.032164555
      3786.33       1.0915507     0.032013084
      3790.11       1.0754439     0.031107820
      3793.90       1.0554154     0.030926120
      3797.70       1.0397148     0.030754966
      3801.50       1.0320847     0.031232861
      3805.30       1.0240440     0.031077514
      3809.10       1.0280315     0.030222548
      3812.91       1.0360906     0.030037535
      3816.73       1.0445541     0.029863773
      3820.54       1.0476353     0.029698313
      3824.36       1.0410217     0.030162669
      3828.19       1.0393059     0.029348627
      3832.02       1.0439428     0.029161971
      3835.85       1.0491019     0.028987184
      3839.68       1.0559358     0.028821007
      3843.52       1.0693409     0.028666475
      3847.37       1.0917067     0.028484366
      3851.22       1.0972070     0.028297758
      3855.07       1.0972345     0.028123448
      3858.92       1.0945585     0.027958159
      3862.78       1.0980974     0.027804824
      3866.64       1.0968647     0.027629113
      3870.51       1.1113194     0.027444247
      3874.38       1.1296308     0.027271922
      3878.26       1.1534634     0.027110317
      3882.13       1.1849781     0.026959065
      3886.02       1.2266469     0.026783394
      3889.90       1.2649740     0.026601168
      3893.79       1.3010233     0.026432031
      3897.69       1.3364954     0.026274141
      3901.59       1.3773391     0.025572428
      3905.49       1.4284270     0.025945443
      3909.39       1.4775841     0.025768845
      3913.30       1.5235336     0.025605579
      3917.22       1.5711149     0.025453365
      3921.13       1.6141413     0.024774467
      3925.06       1.6422056     0.025120300
      3928.98       1.6642255     0.024950829
      3932.91       1.6861290     0.024794718
      3936.84       1.7085262     0.024124363
      3940.78       1.7313259     0.023994045
      3944.72       1.7479106     0.024307935
      3948.67       1.7622264     0.024146349
      3952.61       1.7751238     0.023486316
      3956.57       1.7890600     0.023353234
      3960.52       1.8010633     0.023230757
      3964.48       1.8096459     0.023510448
      3968.45       1.8196890     0.023358854
      3972.42       1.8286084     0.022725027
      3976.39       1.8364263     0.022601140
      3980.37       1.8472601     0.022882422
      3984.35       1.8557773     0.022731024
      3988.33       1.8641486     0.022107625
      3992.32       1.8706587     0.021983622
      3996.31       1.8751080     0.021870194
      4000.31       1.8743769     0.022111261
      4004.31       1.8713338     0.021501223
      4008.31       1.8668909     0.021376928
      4012.32       1.8582914     0.021264531
      4016.33       1.8477268     0.021501229
      4020.35       1.8263830     0.020904512
      4024.37       1.8046531     0.020781594
      4028.40       1.7795895     0.020669928
      4032.42       1.7489290     0.020449822
      4036.46       1.7200351     0.020317154
      4040.50       1.6913384     0.020196504
      4044.54       1.6640510     0.020087328
      4048.58       1.6315171     0.019506228
      4052.63       1.6012444     0.019739921
      4056.68       1.5775839     0.019621900
      4060.74       1.5558342     0.019516064
      4064.80       1.5400026     0.018945950
      4068.86       1.5263931     0.019172299
      4072.93       1.5178092     0.019058206
      4077.01       1.5112589     0.018955785
      4081.08       1.5095369     0.018394553
      4085.17       1.5087123     0.018614513
      4089.25       1.5054328     0.018505448
      4093.34       1.5025186     0.017978103
      4097.43       1.4982048     0.017853741
      4101.53       1.4939108     0.018067676
      4105.63       1.4858943     0.017963374
      4109.74       1.4797896     0.017440216
      4113.85       1.4754621     0.017641414
      4117.96       1.4738544     0.017531959
      4122.08       1.4727481     0.017037892
      4126.20       1.4674766     0.016914523
      4130.33       1.4630937     0.017112127
      4134.46       1.4647318     0.016642918
      4138.59       1.4570606     0.016515392
      4142.73       1.4473030     0.016399043
      4146.88       1.4392269     0.016592948
      4151.02       1.4233007     0.016123937
      4155.18       1.4052482     0.016003829
      4159.33       1.3847217     0.015895512
      4163.49       1.3558835     0.015739554
      4167.65       1.3260373     0.015616557
      4171.82       1.2930224     0.015504715
      4175.99       1.2508213     0.015362781
      4180.17       1.2188673     0.015236924
      4184.35       1.1888683     0.015122685
      4188.54       1.1632361     0.015020165
      4192.72       1.1347470     0.014862905
      4196.92       1.1152275     0.014746751
      4201.11       1.1039829     0.014641583
      4205.31       1.0992745     0.014495005
      4209.52       1.0945053     0.014376878
      4213.73       1.0932633     0.014270923
      4217.94       1.0960569     0.013883699
      4222.16       1.1017709     0.014013600
      4226.38       1.1122641     0.013906447
      4230.61       1.1275630     0.013525334
      4234.84       1.1449396     0.013655656
      4239.08       1.1592836     0.013547615
      4243.32       1.1701046     0.013173727
      4247.56       1.1788383     0.013302816
      4251.81       1.1872249     0.013195251
      4256.06       1.1976080     0.012827489
      4260.32       1.2036533     0.012955642
      4264.58       1.2063561     0.012848250
      4268.84       1.2070159     0.012487611
      4273.11       1.2071652     0.012404593
      4277.38       1.2094735     0.012506384
      4281.66       1.2083637     0.012153829
      4285.94       1.2028535     0.012070980
      4290.23       1.1927958     0.012170462
      4294.52       1.1856858     0.011824987
      4298.81       1.1816652     0.011741386
      4303.11       1.1779914     0.011839674
      4307.42       1.1752280     0.011502330
      4311.72       1.1683943     0.011422882
      4316.04       1.1628561     0.011513898
      4320.35       1.1582592     0.011185395
      4324.67       1.1534169     0.011107355
      4329.00       1.1488499     0.011194072
      4333.33       1.1437783     0.010873709
      4337.66       1.1383528     0.010797997
      4342.00       1.1319454     0.010651477
      4346.34       1.1273700     0.010568195
      4350.69       1.1227697     0.010495112
      4355.04       1.1142925     0.010348427
      4359.39       1.1081237     0.010268197
      4363.75       1.1009862     0.010197737
      4368.12       1.0945920     0.010051117
      4372.48       1.0922654    0.0099739521
      4376.86       1.0904547    0.0099062481
      4381.23       1.0916997    0.0097596682
      4385.61       1.0915122    0.0096856950
      4390.00       1.0902264    0.0094020468
      4394.39       1.0878165    0.0094740989
      4398.79       1.0895816    0.0094040877
      4403.18       1.0958157    0.0091237094
      4407.59       1.1012560    0.0091950212
      4412.00       1.1041519    0.0091286860
      4416.41       1.1057249    0.0088513579
      4420.82       1.1063835    0.0089218239
      4425.25       1.1037517    0.0086598309
      4429.67       1.1035958    0.0087225642
      4434.10       1.1038053    0.0086547467
      4438.54       1.1019885    0.0083955302
      4442.97       1.1021949    0.0084575829
      4447.42       1.1064138    0.0082122441
      4451.86       1.1122468    0.0081373281
      4456.32       1.1184377    0.0081994566
      4460.77       1.1250319    0.0079557550
      4465.24       1.1303127    0.0078854433
      4469.70       1.1341033    0.0077797651
      4474.17       1.1429923    0.0077057322
      4478.65       1.1548529    0.0077617436
      4483.12       1.1727192    0.0075313534
      4487.61       1.1904173    0.0074625942
      4492.09       1.2097483    0.0073620329
      4496.59       1.2259359    0.0072899486
      4501.08       1.2414233    0.0072261879
      4505.58       1.2559277    0.0071221877
      4510.09       1.2743420    0.0070553976
      4514.60       1.2958793    0.0069589940
      4519.12       1.3151343    0.0068893360
      4523.63       1.3349821    0.0068278579
      4528.16       1.3584293    0.0067277772
      4532.69       1.3770543    0.0066637114
      4537.22       1.3954933    0.0065704436
      4541.76       1.4106823    0.0065039428
      4546.30       1.4212476    0.0063138697
      4550.85       1.4278270    0.0063482879
      4555.40       1.4353400    0.0062877904
      4559.95       1.4446436    0.0061965997
      4564.51       1.4517695    0.0061340303
      4569.08       1.4525893    0.0059545962
      4573.65       1.4536570    0.0059841429
      4578.22       1.4546674    0.0058057683
      4582.80       1.4533178    0.0058379064
      4587.38       1.4526813    0.0057797717
      4591.97       1.4564487    0.0056110268
      4596.56       1.4572596    0.0056354781
      4601.16       1.4542103    0.0054680486
      4605.76       1.4527754    0.0054945804
      4610.37       1.4514320    0.0053285947
      4614.98       1.4481495    0.0052831393
      4619.59       1.4425508    0.0051925817
      4624.21       1.4361887    0.0051460726
      4628.84       1.4297183    0.0051668141
      4633.47       1.4217501    0.0050124650
      4638.10       1.4127024    0.0050358395
      4642.74       1.4038748    0.0048869605
      4647.38       1.3885615    0.0048470497
      4652.03       1.3694274    0.0047660328
      4656.68       1.3457640    0.0047266609
      4661.34       1.3230720    0.0046553102
      4666.00       1.2985598    0.0046200708
      4670.67       1.2679861    0.0045651629
      4675.33       1.2368246    0.0045370557
      4680.01       1.2040781    0.0045184921
      4684.69       1.1603392    0.0044823832
      4689.38       1.1247235    0.0044715930
      4694.07       1.0865556    0.0044535170
      4698.76       1.0566248    0.0044483978
      4703.46       1.0246282    0.0044421912
      4708.16       1.0018389    0.0044393820
      4712.87      0.98210378    0.0044380108
      4717.58      0.97244474    0.0044347485
      4722.30      0.97140580    0.0043564499
      4727.03      0.97481500    0.0044321833
      4731.75      0.98450409    0.0043560595
      4736.48      0.99555995    0.0044322192
      4741.22       1.0128392    0.0043569745
      4745.96       1.0328939    0.0044323534
      4750.71       1.0541362    0.0043579022
      4755.46       1.0763579    0.0044325609
      4760.22       1.0938710    0.0043587909
      4764.97       1.1110936    0.0044328181
      4769.74       1.1253016    0.0043596490
      4774.51       1.1387975    0.0043533581
      4779.29       1.1526254    0.0043604194
      4784.07       1.1650185    0.0043536142
      4788.85       1.1747480    0.0043611293
      4793.64       1.1848228    0.0043538610
      4798.43       1.1947564    0.0043617184
      4803.23       1.2045276    0.0043540776
      4808.03       1.2159822    0.0043622019
      4812.84       1.2249935    0.0043542390
      4817.66       1.2353225    0.0043626512
      4822.48       1.2436034    0.0043544120
      4827.30       1.2548072    0.0043628603
      4832.12       1.2582013    0.0043544407
      4836.96       1.2617540    0.0043628663
      4841.79       1.2576546    0.0043543836
      4846.63       1.2464353    0.0043627496
      4851.48       1.2356048    0.0043542689
      4856.33       1.2171261    0.0043625230
      4861.19       1.2016501    0.0043541425
      4866.05       1.1814199    0.0043621780
      4870.92       1.1668120    0.0043539991
      4875.79       1.1487238    0.0043617427
      4880.66       1.1365575    0.0043538444
      4885.55       1.1258109    0.0043612219
      4890.43       1.1190596    0.0043536636
      4895.32       1.1148351    0.0043605740
      4900.22       1.1113801    0.0043534311
      4905.12       1.1117612    0.0043597390
      4910.02       1.1144649    0.0042867833
      4914.94       1.1241565    0.0043588668
      4919.85       1.1344160    0.0042865646
      4924.77       1.1449801    0.0043579680
      4929.70       1.1548474    0.0042863853
      4934.62       1.1635648    0.0043570414
      4939.56       1.1740240    0.0042862706
      4944.50       1.1870119    0.0043561132
      4949.44       1.2001425    0.0042862492
      4954.39       1.2160565    0.0043552298
      4959.35       1.2378444    0.0042863433
      4964.31       1.2648638    0.0042879439
      4969.27       1.2884154    0.0042865857
      4974.24       1.3181684    0.0042872921
      4979.22       1.3412775    0.0042870073
      4984.20       1.3647530    0.0042867723
      4989.18       1.3807568    0.0042876540
      4994.17       1.3934157    0.0042864233
      4999.16       1.3989290    0.0042885702
      5004.16       1.4020742    0.0042862812
      5009.17       1.4002713    0.0042887271
      5014.18       1.3911421    0.0042863930
      5019.19       1.3728187    0.0042876862
      5024.21       1.3508490    0.0042868083
      5029.23       1.3205890    0.0042868936
      5034.26       1.2905056    0.0042875699
      5039.30       1.2520873    0.0042864061
      5044.34       1.2135734    0.0042177215
      5049.39       1.1784401    0.0042862824
      5054.43       1.1468925    0.0042163211
      5059.49       1.1165062    0.0042865737
      5064.55       1.0891612    0.0042871984
      5069.61       1.0690997    0.0042199129
      5074.68       1.0507048    0.0042864192
      5079.76       1.0361011    0.0042178684
      5084.84       1.0270074    0.0042862582
      5089.92       1.0238250    0.0042162143
      5095.01       1.0258305    0.0042866111
      5100.11       1.0321008    0.0042150250
      5105.21       1.0450942    0.0042192090
      5110.31       1.0583790    0.0042863468
      5115.42       1.0756093    0.0042170183
      5120.54       1.0941986    0.0042863942
      5125.66       1.1134151    0.0042154576
      5130.79       1.1328048    0.0042202838
      5135.92       1.1483354    0.0042145760
      5141.05       1.1632152    0.0042176709
      5146.20       1.1802864    0.0042244497
      5151.34       1.1925955    0.0042157738
      5156.49       1.2035552    0.0042206865
      5161.65       1.2134937    0.0042146099
      5166.81       1.2203310    0.0042178418
      5171.98       1.2217078    0.0042244700
      5177.15       1.2252090    0.0042157098
      5182.33       1.2271119    0.0042204657
      5187.51       1.2311607    0.0042146114
      5192.70       1.2343284    0.0042174050
      5197.89       1.2375567    0.0041539885
      5203.09       1.2404540    0.0042153826
      5208.29       1.2454849    0.0042195469
      5213.50       1.2516199    0.0041540204
      5218.72       1.2558694    0.0042165737
      5223.93       1.2565695    0.0041542864
      5229.16       1.2567877    0.0041543206
      5234.39       1.2595169    0.0042182106
      5239.62       1.2629109    0.0041539088
      5244.86       1.2685534    0.0042156543
      5250.11       1.2742803    0.0042200102
      5255.36       1.2796361    0.0041539572
      5260.61       1.2826459    0.0042166513
      5265.87       1.2870927    0.0041542568
      5271.14       1.2937735    0.0041543092
      5276.41       1.3010843    0.0042176919
