# starting wavelength =        3523.6100
# ending wavelength =        7349.9400
# O2 telluric scale =      0.072581189
# O2 telluric shift =       -3.3564574
# H2O telluric scale =        3.1216023
# H2O telluric shift =       -62.332072
      3526.93       1.3101972     0.074539735
      3530.46       1.3344430     0.052571071
      3533.99       1.3551590     0.044143711
      3537.53       1.3610892     0.042128576
      3541.06       1.3766087     0.034428539
      3544.60       1.3983965     0.033372351
      3548.15       1.4125351     0.030852082
      3551.70       1.4266317     0.028359975
      3555.25       1.4337646     0.027606306
      3558.80       1.4645078     0.026221838
      3562.36       1.4736882     0.025555925
      3565.92       1.4775211     0.024694309
      3569.49       1.4836275     0.024651172
      3573.06       1.4908339     0.024615670
      3576.64       1.4980267     0.024591593
      3580.21       1.4937749     0.023972369
      3583.79       1.4870800     0.023968931
      3587.38       1.4834763     0.024529256
      3590.96       1.4891285     0.024489737
      3594.55       1.4891046     0.024461283
      3598.15       1.4767755     0.023843162
      3601.75       1.4537755     0.023835286
      3605.35       1.4357878     0.024389024
      3608.96       1.4108642     0.024345600
      3612.56       1.3962066     0.024312526
      3616.18       1.3950052     0.023695120
      3619.79       1.3792690     0.023681580
      3623.41       1.3631399     0.024234488
      3627.04       1.3465151     0.024186151
      3630.66       1.3462816     0.024147123
      3634.29       1.3492456     0.023529254
      3637.93       1.3530812     0.023508925
      3641.57       1.3578059     0.023497547
      3645.21       1.3641565     0.024008883
      3648.86       1.3870842     0.023963139
      3652.50       1.4011709     0.023345790
      3656.16       1.4100011     0.023318272
      3659.81       1.4271385     0.023299078
      3663.47       1.4492758     0.023288500
      3667.14       1.4654006     0.023765681
      3670.80       1.4813701     0.023147588
      3674.48       1.4902125     0.023111544
      3678.15       1.5008791     0.023084344
      3681.83       1.5086482     0.023064443
      3685.51       1.5183698     0.023554081
      3689.20       1.5318844     0.022934985
      3692.88       1.5455824     0.022890991
      3696.58       1.5607600     0.022854297
      3700.27       1.5711332     0.022824921
      3703.98       1.5844062     0.022802979
      3707.68       1.5827985     0.022711338
      3711.39       1.5877551     0.023364185
      3715.10       1.5768008     0.023827346
      3718.81       1.5580074     0.022728729
      3722.53       1.5416459     0.022536313
      3726.26       1.5297768     0.022679970
      3729.98       1.5162462     0.022337355
      3733.71       1.5041873     0.023073888
      3737.45       1.4826957     0.023424867
      3741.18       1.4638049     0.023803426
      3744.93       1.4462203     0.024156842
      3748.67       1.4308134     0.023656548
      3752.42       1.4105726     0.023812681
      3756.17       1.3912034     0.024670794
      3759.93       1.3718214     0.024438362
      3763.69       1.3603911     0.024275603
      3767.45       1.3377073     0.024001712
      3771.22       1.3382325     0.023168438
      3774.99       1.3407987     0.022776771
      3778.77       1.3470118     0.022361189
      3782.54       1.3526951     0.022376922
      3786.33       1.3600601     0.022005849
      3790.11       1.3657837     0.021744089
      3793.90       1.3740080     0.021076410
      3797.70       1.3805037     0.020941140
      3801.50       1.3896500     0.021097760
      3805.30       1.3916562     0.021936515
      3809.10       1.3936429     0.021735835
      3812.91       1.3923240     0.021166562
      3816.73       1.3933401     0.021134301
      3820.54       1.3938435     0.021803867
      3824.36       1.3787630     0.020704453
      3828.19       1.3806003     0.020406261
      3832.02       1.3731922     0.020419758
      3835.85       1.3783234     0.021030600
      3839.68       1.3765261     0.020804240
      3843.52       1.3839803     0.021021651
      3847.37       1.4002976     0.021277419
      3851.22       1.4149768     0.021529457
      3855.07       1.4294593     0.021740706
      3858.92       1.4464841     0.021878140
      3862.78       1.4552289     0.022668641
      3866.64       1.4766223     0.022096204
      3870.51       1.4961678     0.021832592
      3874.38       1.5076114     0.021594291
      3878.26       1.5171211     0.021270188
      3882.13       1.5304871     0.020890628
      3886.02       1.5397428     0.020489899
      3889.90       1.5484724     0.020102566
      3893.79       1.5555569     0.019898686
      3897.69       1.5542835     0.019523782
      3901.59       1.5570111     0.019235815
      3905.49       1.5532802     0.019091822
      3909.39       1.5529698     0.019207970
      3913.30       1.5444496     0.019926365
      3917.22       1.5506345     0.019405110
      3921.13       1.5511709     0.018790598
      3925.06       1.5500349     0.018328619
      3928.98       1.5503367     0.018690468
      3932.91       1.5415565     0.018601098
      3936.84       1.5450472     0.018514384
      3940.78       1.5567148     0.018429602
      3944.72       1.5655914     0.018347862
      3948.67       1.5709393     0.017890149
      3952.61       1.5670666     0.017814955
      3956.57       1.5658855     0.017741257
      3960.52       1.5659822     0.017669549
      3964.48       1.5656954     0.018000256
      3968.45       1.5541540     0.017910869
      3972.42       1.5377646     0.017823693
      3976.39       1.5288232     0.017738651
      3980.37       1.5219451     0.017292641
      3984.35       1.5149256     0.017212650
      3988.33       1.5078065     0.017134637
      3992.32       1.4991737     0.017058806
      3996.31       1.4885104     0.016984963
      4000.31       1.4795061     0.016912266
      4004.31       1.4726371     0.017205358
      4008.31       1.4679763     0.017116646
      4012.32       1.4574196     0.016682107
      4016.33       1.4515668     0.016598663
      4020.35       1.4458606     0.016516696
      4024.37       1.4328749     0.016436203
      4028.40       1.4256404     0.016356699
      4032.42       1.4212614     0.016278894
      4036.46       1.4224067     0.016202797
      4040.50       1.4221397     0.016128321
      4044.54       1.4232166     0.016065241
      4048.58       1.4277788     0.016465196
      4052.63       1.4330444     0.016748976
      4056.68       1.4352094     0.015983584
      4060.74       1.4450526     0.015763363
      4064.80       1.4556966     0.015757590
      4068.86       1.4619586     0.015858432
      4072.93       1.4601596     0.016014191
      4077.01       1.4917139     0.018340885
      4081.08       1.5036607     0.018779732
      4085.17       1.5014803     0.018453133
      4089.25       1.5055729     0.018774523
      4093.34       1.5096966     0.019736228
      4097.43       1.5155560     0.019936701
      4101.53       1.5115065     0.019626658
      4105.63       1.5121856     0.019315861
      4109.74       1.5079629     0.018851242
      4113.85       1.4920058     0.018310017
      4117.96       1.4823853     0.017772548
      4122.08       1.4774899     0.017314813
      4126.20       1.4694183     0.016484726
      4130.33       1.4614961     0.016172696
      4134.46       1.4475188     0.016150011
      4138.59       1.4402806     0.016967529
      4142.73       1.4400157     0.016390397
      4146.88       1.4381818     0.015769999
      4151.02       1.4394320     0.016112148
      4155.18       1.4402365     0.016017583
      4159.33       1.4352082     0.015924820
      4163.49       1.4303036     0.015833731
      4167.65       1.4357811     0.015744398
      4171.82       1.4380104     0.015655579
      4175.99       1.4395800     0.015181089
      4180.17       1.4382679     0.015500003
      4184.35       1.4397588     0.016146224
      4188.54       1.4389513     0.014998796
      4192.72       1.4339275     0.014843150
      4196.92       1.4305948     0.014974092
      4201.11       1.4277550     0.015227376
      4205.31       1.4204411     0.015522544
      4209.52       1.4105288     0.015795714
      4213.73       1.4029967     0.015987535
      4217.94       1.4023227     0.016775582
      4222.16       1.4011440     0.016588442
      4226.38       1.3944356     0.016300525
      4230.61       1.3837188     0.015883424
      4234.84       1.3657951     0.015133476
      4239.08       1.3542014     0.014664254
      4243.32       1.3478797     0.014205379
      4247.56       1.3413378     0.013807595
      4251.81       1.3356067     0.013531071
      4256.06       1.3362156     0.013495064
      4260.32       1.3354580     0.014151694
      4264.58       1.3378469     0.013658196
      4268.84       1.3397039     0.013165385
      4273.11       1.3440278     0.013073863
      4277.38       1.3460507     0.012983429
      4281.66       1.3450152     0.012893958
      4285.94       1.3471277     0.012805416
      4290.23       1.3462115     0.012717723
      4294.52       1.3407255     0.012630885
      4298.81       1.3359093     0.012544962
      4303.11       1.3210435     0.012151313
      4307.42       1.3095473     0.012068686
      4311.72       1.2967414     0.011985717
      4316.04       1.2800087     0.011903653
      4320.35       1.2678186     0.011822429
      4324.67       1.2576333     0.012103629
      4329.00       1.2485379     0.012014931
      4333.33       1.2420357     0.011927183
      4337.66       1.2420271     0.011840400
      4342.00       1.2410664     0.011754551
      4346.34       1.2420426     0.011669702
      4350.69       1.2416847     0.011585758
      4355.04       1.2360087     0.011502032
      4359.39       1.2268250     0.011418477
      4363.75       1.2201502     0.011336022
      4368.12       1.2191560     0.011254538
      4372.48       1.2156690     0.011173970
      4376.86       1.2149276     0.011094255
      4381.23       1.2159980     0.011015384
      4385.61       1.2124168     0.010937355
      4390.00       1.2136593     0.010860199
      4394.39       1.2185130     0.010783963
      4398.79       1.2274840     0.010707992
      4403.18       1.2356418     0.010632093
      4407.59       1.2466505     0.010557225
      4412.00       1.2583127     0.010225031
      4416.41       1.2707365     0.010153673
      4420.82       1.2866409     0.010083078
      4425.25       1.3008704     0.010013256
      4429.67       1.3167377    0.0099442004
      4434.10       1.3275409    0.0098759532
      4438.54       1.3413379    0.0098085578
      4442.97       1.3554585    0.0097419030
      4447.42       1.3698013    0.0096748551
      4451.86       1.3833572    0.0096096308
      4456.32       1.3965711    0.0095448249
      4460.77       1.4162678    0.0094808972
      4465.24       1.4324161    0.0094178065
      4469.70       1.4414471    0.0093555608
      4474.17       1.4517683    0.0092941381
      4478.65       1.4660879    0.0092335692
      4483.12       1.4796200    0.0091739016
      4487.61       1.4889961    0.0091151140
      4492.09       1.4984821    0.0090564184
      4496.59       1.5094921    0.0089987394
      4501.08       1.5190798    0.0089420411
      4505.58       1.5304441    0.0088862288
      4510.09       1.5376612    0.0088313026
      4514.60       1.5454650    0.0087772562
      4519.12       1.5551406    0.0087241007
      4523.63       1.5677133    0.0086718541
      4528.16       1.5755309    0.0086205047
      4532.69       1.5784585    0.0085700094
      4537.22       1.5809486    0.0085197102
      4541.76       1.5833800    0.0084703820
      4546.30       1.5853514    0.0084219938
      4550.85       1.5835344    0.0083745183
      4555.40       1.5746293    0.0083279014
      4559.95       1.5697163    0.0082821469
      4564.51       1.5650236    0.0082372387
      4569.08       1.5581807    0.0081931986
      4573.65       1.5562198    0.0081500892
      4578.22       1.5545584    0.0079101826
      4582.80       1.5496785    0.0078696197
      4587.38       1.5463372    0.0078300185
      4591.97       1.5442870    0.0077911445
      4596.56       1.5399777    0.0077531601
      4601.16       1.5367551    0.0077159931
      4605.76       1.5335477    0.0076796395
      4610.37       1.5307085    0.0076441022
      4614.98       1.5239286    0.0076093946
      4619.59       1.5149019    0.0075755551
      4624.21       1.5073554    0.0075422765
      4628.84       1.4988967    0.0075096829
      4633.47       1.4895800    0.0074779892
      4638.10       1.4794245    0.0074471585
      4642.74       1.4661836    0.0074171574
      4647.38       1.4534284    0.0073879579
      4652.03       1.4397577    0.0073596083
      4656.68       1.4250023    0.0073320990
      4661.34       1.4148230    0.0073054269
      4666.00       1.3999584    0.0072796477
      4670.67       1.3841816    0.0074128768
      4675.33       1.3716312    0.0073842326
      4680.01       1.3585536    0.0073564570
      4684.69       1.3417776    0.0073295970
      4689.38       1.3257997    0.0071318623
      4694.07       1.3094171    0.0071077091
      4698.76       1.2953544    0.0070843774
      4703.46       1.2789737    0.0070618492
      4708.16       1.2653082    0.0070401762
      4712.87       1.2544415    0.0070191479
      4717.58       1.2410402    0.0069987317
      4722.30       1.2307629    0.0069791965
      4727.03       1.2209680    0.0069605168
      4731.75       1.2123155    0.0069426719
      4736.48       1.2019087    0.0069256579
      4741.22       1.1934218    0.0069094944
      4745.96       1.1860694    0.0068941862
      4750.71       1.1821010    0.0068797435
      4755.46       1.1806869    0.0068662251
      4760.22       1.1813267    0.0068533295
      4764.97       1.1812131    0.0066690494
      4769.74       1.1776683    0.0066536422
      4774.51       1.1758273    0.0066390480
      4779.29       1.1748142    0.0066252261
      4784.07       1.1742054    0.0067773717
      4788.85       1.1695084    0.0067650382
      4793.64       1.1644308    0.0067535814
      4798.43       1.1602858    0.0067430440
      4803.23       1.1584113    0.0067332259
      4808.03       1.1535028    0.0067241114
      4812.84       1.1449833    0.0067159530
      4817.66       1.1384164    0.0067087294
      4822.48       1.1310049    0.0067024404
      4827.30       1.1263563    0.0065413887
      4832.12       1.1241773    0.0065314857
      4836.96       1.1264669    0.0065224405
      4841.79       1.1315603    0.0065143078
      4846.63       1.1368354    0.0065068218
      4851.48       1.1434288    0.0065004575
      4856.33       1.1475778    0.0064947754
      4861.19       1.1530537    0.0066556970
      4866.05       1.1619785    0.0066518782
      4870.92       1.1655848    0.0066490283
      4875.79       1.1663668    0.0066471635
      4880.66       1.1665812    0.0065031840
      4885.55       1.1710207    0.0064968444
      4890.43       1.1726346    0.0064912844
      4895.32       1.1788435    0.0064869027
      4900.22       1.1781231    0.0066530208
      4905.12       1.1753753    0.0065289394
      4910.02       1.1809819    0.0064966758
      4914.94       1.1768097    0.0065145482
      4919.85       1.1769353    0.0065619538
      4924.77       1.1840887    0.0067956195
      4929.70       1.1913013    0.0067183463
      4934.62       1.1944219    0.0067770353
      4939.56       1.1966600    0.0068235564
      4944.50       1.2006309    0.0070413830
      4949.44       1.2010820    0.0073278862
      4954.39       1.2009324    0.0073961256
      4959.35       1.1988228    0.0078557823
      4964.31       1.1902209    0.0080959094
      4969.27       1.1842079    0.0090961469
      4974.24       1.1819256    0.0073697684
      4979.22       1.1808066    0.0075927066
      4984.20       1.1777225    0.0081216740
      4989.18       1.1824405    0.0088489918
      4994.17       1.1751266    0.0099422888
      4999.16       1.1723530     0.010415512
      5004.16       1.1713348     0.010937933
      5009.17       1.1625370     0.010601756
      5014.18       1.1660913     0.010195639
      5019.19       1.1732957    0.0095921866
      5024.21       1.1690026    0.0089800067
      5029.23       1.1673080    0.0085276568
      5034.26       1.1665920    0.0081326005
      5039.30       1.1649391     0.010007081
      5044.34       1.1636747    0.0092873587
      5049.39       1.1646346    0.0080377150
      5054.43       1.1590791    0.0074751823
      5059.49       1.1568341    0.0072188748
      5064.55       1.1524318    0.0068813083
      5069.61       1.1483006    0.0067028522
      5074.68       1.1452089    0.0067052621
      5079.76       1.1406595    0.0067093159
      5084.84       1.1355675    0.0067146036
      5089.92       1.1343238    0.0065909689
      5095.01       1.1342273    0.0065992962
      5100.11       1.1388592    0.0066089173
      5105.21       1.1433252    0.0066198604
      5110.31       1.1452405    0.0066321608
      5115.42       1.1499371    0.0067926463
      5120.54       1.1560767    0.0067977676
      5125.66       1.1636963    0.0066728492
      5130.79       1.1717609    0.0066813706
      5135.92       1.1801298    0.0066913211
      5141.05       1.1882863    0.0067027105
      5146.20       1.1955980    0.0067155920
      5151.34       1.2004679    0.0067299850
      5156.49       1.2087643    0.0067505435
      5161.65       1.2123113    0.0067577844
      5166.81       1.2155186    0.0067667450
      5171.98       1.2172868    0.0067773789
      5177.15       1.2188237    0.0067893978
      5182.33       1.2209744    0.0068030369
      5187.51       1.2237313    0.0066674893
      5192.70       1.2251541    0.0068357386
      5197.89       1.2283939    0.0068436498
      5203.09       1.2309047    0.0068532480
      5208.29       1.2290189    0.0068643709
      5213.50       1.2291719    0.0068773392
      5218.72       1.2316222    0.0067430936
      5223.93       1.2318950    0.0067484881
      5229.16       1.2330634    0.0069191353
      5234.39       1.2344926    0.0069279320
      5239.62       1.2349042    0.0069385559
      5244.86       1.2359895    0.0069510726
      5250.11       1.2373727    0.0068149448
      5255.36       1.2360433    0.0068197747
      5260.61       1.2334224    0.0069924340
      5265.87       1.2296303    0.0070014742
      5271.14       1.2236152    0.0070121999
      5276.41       1.2150742    0.0068829707
      5281.69       1.1983962    0.0068866484
      5286.97       1.1797591    0.0068936085
      5292.26       1.1600436    0.0070716452
      5297.55       1.1437733    0.0070851061
      5302.85       1.1250698    0.0071007825
      5308.15       1.1076174    0.0069735503
      5313.46       1.0953596    0.0069815116
      5318.77       1.0835776    0.0069904389
      5324.09       1.0689143    0.0071703351
      5329.42       1.0606074    0.0071801633
      5334.75       1.0585992    0.0070447891
      5340.08       1.0534977    0.0070439855
      5345.42       1.0505268    0.0070446292
      5350.77       1.0483255    0.0070471643
      5356.12       1.0492097    0.0072210644
      5361.48       1.0480819    0.0070836675
      5366.83       1.0526418    0.0070799203
      5372.20       1.0517760    0.0070776397
      5377.58       1.0520122    0.0070770434
      5382.95       1.0545681    0.0071130034
      5388.34       1.0567335    0.0071025334
      5393.72       1.0580658    0.0070946511
      5399.12       1.0564261    0.0070885746
      5404.52       1.0573305    0.0070841406
      5409.92       1.0543753    0.0069516692
