# starting wavelength =        3398.5000
# ending wavelength =        9128.7500
# O2 telluric scale =        0
# O2 telluric shift =        0
# H2O telluric scale =        0
# H2O telluric shift =        0
      3398.88       7.0227533      0.23442407
      3402.28       6.9898717      0.23069278
      3405.68       7.0036926      0.22709527
      3409.09       6.9900357      0.22715414
      3412.49       7.0060580      0.22338764
      3415.91       6.9765233      0.21974684
      3419.32       6.9065095      0.21623883
      3422.74       6.8655396      0.21285835
      3426.17       6.8506481      0.21281434
      3429.59       6.8301700      0.20928044
      3433.02       6.7521786      0.20587356
      3436.45       6.7151851      0.20258711
      3439.89       6.7875793      0.22303081
      3443.33       6.8049776      0.22685604
      3446.78       6.7795737      0.22303815
      3450.22       6.7494088      0.21939779
      3453.67       6.7740066      0.21592726
      3457.13       6.8364907      0.20884887
      3460.58       6.8447547      0.21234733
      3464.04       6.8464189      0.20876953
      3467.51       6.7498947      0.20535532
      3470.98       6.6772624      0.20208959
      3474.45       6.6522058      0.19545114
      3477.92       6.6668395      0.19867998
      3481.40       6.6853683      0.19531747
      3484.88       6.7780716      0.19210689
      3488.37       6.7758538      0.18572443
      3491.86       6.7610377      0.18282834
      3495.35       6.7542559      0.18584577
      3498.84       6.6894429      0.18268866
      3502.34       6.6454681      0.17967050
      3505.84       6.6977447      0.17368813
      3509.35       6.7958511      0.17096029
      3512.86       6.8618878      0.16834752
      3516.37       6.8731220      0.17085109
      3519.89       6.9298718      0.16799850
      3523.41       7.0022853      0.16238475
      3526.93       7.1134030      0.15981225
      3530.46       7.1972217      0.15734698
      3533.99       7.2471673      0.15974742
      3537.53       7.3525940      0.15707200
      3541.06       7.4180494      0.15181394
      3544.60       7.5103855      0.14939338
      3548.15       7.5846847      0.14707092
      3551.70       7.6329326      0.14484618
      3555.25       7.6407131      0.14689642
      3558.80       7.6507871      0.14196039
      3562.36       7.6335596      0.13967492
      3565.92       7.5499961      0.13748248
      3569.49       7.4766446      0.13538070
      3573.06       7.3911657      0.13336725
      3576.64       7.3471399      0.13278024
      3580.21       7.2030198      0.13063430
      3583.79       7.0984836      0.12857364
      3587.38       7.0029423      0.12659534
      3590.96       6.9234659      0.12469778
      3594.55       6.8194251      0.12288018
      3598.15       6.7435817      0.12226830
      3601.75       6.6181745      0.12033045
      3605.35       6.5092990      0.11846390
      3608.96       6.4638673      0.11667818
      3612.56       6.4124378      0.11496482
      3616.18       6.3226640      0.11130640
      3619.79       6.2630301      0.11272412
      3623.41       6.1929552      0.11097626
      3627.04       6.1419943      0.10929846
      3630.66       6.0914975      0.10768891
      3634.29       6.0857827      0.10614669
      3637.93       6.1273807      0.10278840
      3641.57       6.1401850      0.10119987
      3645.21       6.1481724      0.10254189
      3648.86       6.1419893      0.10102785
      3652.50       6.1516466     0.099581317
      3656.16       6.2103673     0.098194103
      3659.81       6.2403064     0.095137441
      3663.47       6.2786387     0.093711914
      3667.14       6.2928736     0.094968018
      3670.80       6.3602921     0.093614048
      3674.48       6.3743613     0.092316958
      3678.15       6.3197728     0.091075484
      3681.83       6.2544283     0.088320662
      3685.51       6.2363346     0.087045104
      3689.20       6.2000440     0.085817983
      3692.88       6.1658262     0.087012666
      3696.58       6.1031290     0.085854833
      3700.27       6.0234968     0.084746508
      3703.98       5.9501570     0.082285345
      3707.68       5.8543397     0.081148761
      3711.39       5.7797218     0.080060200
      3715.10       5.7314453     0.079018083
      3718.81       5.6845716     0.078021048
      3722.53       5.6257596     0.079174381
      3726.26       5.6099423     0.076999675
      3729.98       5.5869661     0.075990969
      3733.71       5.5593695     0.075023270
      3737.45       5.5135910     0.074100801
      3741.18       5.5031144     0.073221755
      3744.93       5.5196244     0.072381906
      3748.67       5.4942232     0.072414972
      3752.42       5.5221049     0.071523924
      3756.17       5.5019713     0.070673962
      3759.93       5.4769111     0.069863380
      3763.69       5.4574575     0.069090971
      3767.45       5.3916208     0.068355652
      3771.22       5.3355160     0.067656508
      3774.99       5.2940081     0.065790493
      3778.77       5.2651814     0.066968801
      3782.54       5.2304801     0.066258535
      3786.33       5.1485989     0.065585549
      3790.11       5.0744462     0.066594325
      3793.90       5.0032295     0.064688506
      3797.70       4.9669473     0.063771105
      3801.50       4.9378368     0.062205212
      3805.30       4.8993142     0.061904909
      3809.10       4.8697094     0.061781120
      3812.91       4.8397573     0.063189067
      3816.73       4.8105729     0.064780878
      3820.54       4.7834259     0.066439952
      3824.36       4.7626936     0.063491280
      3828.19       4.7701238     0.062871837
      3832.02       4.7545836     0.061939908
      3835.85       4.7359729     0.062220680
      3839.68       4.7417728     0.062658597
      3843.52       4.7667018     0.063742735
      3847.37       4.7822626     0.065677565
      3851.22       4.8052980     0.065991167
      3855.07       4.8321355     0.065992463
      3858.92       4.8457061     0.064294223
      3862.78       4.8751015     0.063787997
      3866.64       4.8962374     0.062208387
      3870.51       4.9015115     0.061263232
      3874.38       4.8984810     0.060278713
      3878.26       4.9088365     0.059375049
      3882.13       4.9174213     0.058709448
      3886.02       4.9377620     0.059824744
      3889.90       4.9454357     0.057552755
      3893.79       4.9483895     0.055430439
      3897.69       4.9657850     0.054616465
      3901.59       4.9892444     0.054067678
      3905.49       4.9934127     0.053937885
      3909.39       5.0012292     0.055261309
      3913.30       5.0166882     0.058807495
      3917.22       5.0346830     0.054802014
      3921.13       5.0613577     0.053402298
      3925.06       5.0780796     0.052456032
      3928.98       5.0758298     0.053843814
      3932.91       5.0645286     0.054344760
      3936.84       5.0420864     0.055053931
      3940.78       5.0296444     0.055862963
      3944.72       5.0107087     0.056683553
      3948.67       4.9815041     0.057430512
      3952.61       4.9460063     0.058025262
      3956.57       4.9028761     0.058402308
      3960.52       4.8421124     0.058613744
      3964.48       4.7834801     0.056848808
      3968.45       4.7221490     0.056511510
      3972.42       4.6336820     0.055986389
      3976.39       4.5441136     0.055318884
      3980.37       4.4884150     0.055538307
      3984.35       4.4071761     0.054709957
      3988.33       4.3426602     0.053932827
      3992.32       4.2853788     0.053292504
      3996.31       4.2437295     0.052892644
      4000.31       4.2014252     0.052894489
      4004.31       4.1582060     0.051466552
      4008.31       4.1175992     0.052046339
      4012.32       4.1048010     0.054066343
      4016.33       4.1004301     0.052878352
      4020.35       4.0944736     0.051659050
      4024.37       4.1012015     0.051698129
      4028.40       4.1000126     0.051742389
      4032.42       4.0953667     0.051790895
      4036.46       4.0738217     0.052807643
      4040.50       4.0629166     0.052864577
      4044.54       4.0687705     0.054135701
      4048.58       4.0875762     0.055258917
      4052.63       4.0914272     0.052702230
      4056.68       4.1215270     0.052174154
      4060.74       4.1431836     0.052283302
      4064.80       4.1550136     0.052744229
      4068.86       4.1721748     0.053414374
      4072.93       4.1878795     0.054201534
      4077.01       4.1854135     0.055030879
      4081.08       4.1930680     0.055830908
      4085.17       4.2154727     0.056537708
      4089.25       4.2327950     0.057089950
      4093.34       4.2291143     0.057438942
      4097.43       4.2189930     0.057816025
      4101.53       4.1955785     0.057578041
      4105.63       4.1797866     0.055642940
      4109.74       4.1679108     0.055165519
      4113.85       4.1676388     0.054573950
      4117.96       4.1611019     0.055253657
      4122.08       4.1527239     0.054458381
      4126.20       4.1297048     0.053693296
      4130.33       4.0941417     0.053035587
      4134.46       4.0582150     0.052581995
      4138.59       4.0244249     0.052477733
      4142.73       3.9851658     0.053017414
      4146.88       3.9415206     0.055004343
      4151.02       3.9120047     0.053734573
      4155.18       3.8855240     0.052438993
      4159.33       3.8687805     0.052404635
      4163.49       3.8477008     0.052365236
      4167.65       3.8152014     0.052319238
      4171.82       3.7780954     0.051193956
      4175.99       3.7398712     0.051142591
      4180.17       3.7095122     0.051087275
      4184.35       3.6762271     0.051027524
      4188.54       3.6428989     0.050963433
      4192.72       3.6000597     0.050892894
      4196.92       3.5573392     0.050817101
      4201.11       3.5151575     0.050736225
      4205.31       3.4818024     0.050650382
      4209.52       3.4523203     0.050558112
      4213.73       3.4216376     0.050461546
      4217.94       3.3872709     0.050360748
      4222.16       3.3572422     0.050255532
      4226.38       3.3296335     0.050145960
      4230.61       3.3007398     0.050032132
      4234.84       3.2718672     0.049911938
      4239.08       3.2394872     0.049786961
      4243.32       3.2155437     0.049656890
      4247.56       3.1974917     0.049521902
      4251.81       3.1790563     0.049380968
      4256.06       3.1629032     0.049235789
      4260.32       3.1402327     0.049086599
      4264.58       3.1140732     0.047986461
      4268.84       3.0944265     0.047826365
      4273.11       3.0629608     0.047662398
      4277.38       3.0383289     0.048423737
      4281.66       3.0142737     0.049583894
      4285.94       2.9842659     0.047687786
      4290.23       2.9725100     0.046977839
      4294.52       2.9556077     0.046806695
      4298.81       2.9369816     0.046928714
      4303.11       2.9133951     0.047220013
      4307.42       2.8972018     0.047602541
      4311.72       2.8943569     0.048018418
      4316.04       2.8977476     0.048415365
      4320.35       2.8918959     0.048748543
      4324.67       2.8765721     0.048976553
      4329.00       2.8727187     0.049067966
      4333.33       2.8781260     0.049001410
      4337.66       2.8879156     0.048793230
      4342.00       2.9021689     0.048290776
      4346.34       2.9128007     0.047656182
      4350.69       2.9151768     0.046923371
      4355.04       2.9184978     0.046129281
      4359.39       2.9158691     0.045312635
      4363.75       2.9114623     0.044512815
      4368.12       2.9067356     0.043768362
      4372.48       2.9056668     0.043123024
      4376.86       2.9047618     0.042631424
      4381.23       2.8990303     0.042376433
      4385.61       2.8885797     0.042515495
      4390.00       2.8839316     0.043412978
      4394.39       2.8791047     0.042337738
      4398.79       2.8777515     0.041258892
      4403.18       2.8809326     0.040990761
      4407.59       2.8709822     0.040720340
      4412.00       2.8560965     0.040446479
      4416.41       2.8653389     0.045628988
      4420.82       2.8551688     0.045313042
      4425.25       2.8452269     0.044994702
      4429.67       2.8451000     0.044674056
      4434.10       2.8556923     0.044351340
      4438.54       2.8755241     0.044024735
      4442.97       2.8838164     0.043695371
      4447.42       2.8777641     0.043364474
      4451.86       2.8631087     0.043031890
      4456.32       2.8563820     0.042697447
      4460.77       2.8535025     0.042361320
      4465.24       2.8499416     0.042023425
      4469.70       2.8529104     0.041683907
      4474.17       2.8555836     0.041343034
      4478.65       2.8494033     0.041000923
      4483.12       2.8494160     0.040655597
      4487.61       2.8549168     0.040308765
      4492.09       2.8639962     0.040770449
      4496.59       2.8804744     0.040395317
      4501.08       2.8926325     0.040019362
      4505.58       2.8934600     0.039642379
      4510.09       2.8930110     0.039264572
      4514.60       2.9019193     0.038886167
      4519.12       2.9107849     0.038507463
      4523.63       2.9086731     0.038128347
      4528.16       2.8762463     0.036726360
      4532.69       2.8522824     0.036352917
      4537.22       2.8312152     0.035979488
      4541.76       2.8118189     0.035605856
      4546.30       2.7898883     0.035232185
      4550.85       2.7693111     0.034858522
      4555.40       2.7609463     0.034484905
      4559.95       2.7518809     0.034111522
      4564.51       2.7452166     0.033738532
      4569.08       2.7456272     0.033364506
      4573.65       2.7428987     0.032990647
      4578.22       2.7417571     0.032617830
      4582.80       2.7408185     0.032245888
      4587.38       2.7330889     0.031874732
      4591.97       2.7258419     0.031504430
      4596.56       2.7246952     0.031135084
      4601.16       2.7243101     0.030766754
      4605.76       2.7067562     0.029445204
      4610.37       2.6937010     0.029066532
      4614.98       2.6790012     0.028690181
      4619.59       2.6689351     0.028871280
      4624.21       2.6638373     0.028487068
      4628.84       2.6534528     0.028104574
      4633.47       2.6422523     0.027723893
      4638.10       2.6306499     0.027345017
      4642.74       2.6173587     0.026968012
      4647.38       2.6003214     0.026592982
      4652.03       2.5819213     0.026220123
      4656.68       2.5689873     0.025849443
      4661.34       2.5568576     0.025478676
      4666.00       2.5307436     0.024333859
      4670.67       2.5104231     0.023957406
      4675.33       2.4922190     0.023583687
      4680.01       2.4739779     0.023212511
      4684.69       2.4500918     0.022844004
      4689.38       2.4161275     0.022478200
      4694.07       2.3864423     0.022115101
      4698.76       2.3680564     0.022148631
      4703.46       2.3495085     0.021780649
      4708.16       2.3272469     0.021416335
      4712.87       2.3046173     0.021055515
      4717.58       2.2802704     0.020063006
      4722.30       2.2521404     0.019697819
      4727.03       2.2237841     0.019336202
      4731.75       2.1963299     0.018978164
      4736.48       2.1745598     0.018623775
      4741.22       2.1570626     0.018272992
      4745.96       2.1445713     0.017924833
      4750.71       2.1339877     0.017581191
      4755.46       2.1173545     0.017240989
      4760.22       2.1078409     0.017184955
      4764.97       2.0984533     0.016322641
      4769.74       2.0880463     0.015976636
      4774.51       2.0799221     0.015635081
      4779.29       2.0703647     0.015297961
      4784.07       2.0677866     0.014965284
      4788.85       2.0636963     0.014636279
      4793.64       2.0486711     0.014312259
      4798.43       2.0376880     0.013992512
      4803.23       2.0393335     0.013677326
      4808.03       2.0190336     0.012934516
      4812.84       2.0080245     0.012820409
      4817.66       2.0093022     0.012504140
      4822.48       2.0176005     0.012192993
      4827.30       2.0222409     0.011887016
      4832.12       2.0221664     0.011585336
      4836.96       2.0253764     0.011289206
      4841.79       2.0280628     0.010998024
      4846.63       2.0261491     0.010711891
      4851.48       2.0033635     0.010072903
      4856.33       1.9943105    0.0098039207
      4861.19       1.9918398    0.0096501575
      4866.05       1.9882540    0.0093732721
      4870.92       1.9835999    0.0091020040
      4875.79       1.9809464    0.0088356951
      4880.66       1.9762352    0.0085753555
      4885.55       1.9682377    0.0080198018
      4890.43       1.9703513    0.0077775223
      4895.32       1.9817027    0.0075405655
      4900.22       1.9800791    0.0073101665
      4905.12       1.9673039    0.0070959789
      4910.02       1.9886970    0.0069325394
      4914.94       2.0029364    0.0067155391
      4919.85       1.9939186    0.0065059886
      4924.77       1.9840826    0.0061007803
      4929.70       1.9725100    0.0059323486
      4934.62       1.9535624    0.0057824897
      4939.56       1.9341082    0.0056527540
      4944.50       1.9232785    0.0056987024
      4949.44       1.9123556    0.0058523645
      4954.39       1.9066589    0.0060969241
      4959.35       1.8995159    0.0062374222
      4964.31       1.8956988    0.0069154403
      4969.27       1.9012721    0.0058550687
      4974.24       1.8991115    0.0059876077
      4979.22       1.8970329    0.0062527482
      4984.20       1.8991186    0.0065905615
      4989.18       1.9130797    0.0068331547
      4994.17       1.9087918    0.0071823195
      4999.16       1.9147855    0.0074550298
      5004.16       1.9426069    0.0074850375
      5009.17       1.9401506    0.0072110282
      5014.18       1.9290471    0.0068482770
      5019.19       1.9305468    0.0064481438
      5024.21       1.9372005    0.0061798850
      5029.23       1.9460259    0.0058778528
      5034.26       1.9527225    0.0057043945
      5039.30       1.9730334    0.0066748665
      5044.34       1.9876543    0.0063329549
      5049.39       1.9808563    0.0058568828
      5054.43       1.9791341    0.0054970102
      5059.49       1.9792906    0.0053399919
      5064.55       1.9795298    0.0051847436
      5069.61       1.9826841    0.0051846794
      5074.68       1.9804853    0.0051860506
      5079.76       1.9769354    0.0050744187
      5084.84       1.9715289    0.0050702803
      5089.92       1.9673058    0.0051861666
      5095.01       1.9661799    0.0051846859
      5100.11       1.9672076    0.0051848518
      5105.21       1.9691250    0.0051864083
      5110.31       1.9671568    0.0050739566
      5115.42       1.9680211    0.0050698542
      5120.54       1.9804437    0.0051859595
      5125.66       1.9882351    0.0051847415
      5130.79       1.9956916    0.0051851626
      5135.92       2.0034395    0.0050772353
      5141.05       2.0047225    0.0050719022
      5146.20       1.9997857    0.0050682988
      5151.34       1.9976215    0.0051850667
      5156.49       2.0025440    0.0051846023
      5161.65       2.0148773    0.0050804119
      5166.81       2.0182795    0.0050742076
      5171.98       2.0195867    0.0050697239
      5177.15       2.0191065    0.0050668528
      5182.33       2.0150573    0.0051844995
      5187.51       2.0045437    0.0050827978
      5192.70       1.9957009    0.0050758560
      5197.89       1.9859674    0.0050707796
      5203.09       1.9702961    0.0050675382
      5208.29       1.9517166    0.0050661415
      5213.50       1.9320086    0.0050838704
      5218.72       1.9181705    0.0050764217
