# starting wavelength =        3262.3432
# ending wavelength =        7913.0798
# O2 telluric scale =       0.34254939
# O2 telluric shift =        5.0456812
# H2O telluric scale =        0
# H2O telluric shift =        0
      3262.40      0.43054770      0.10636487
      3265.67      0.45578584      0.10387387
      3268.93      0.49902651      0.10307339
      3272.20      0.53724392      0.10449541
      3275.47      0.56040680      0.10203656
      3278.75      0.63373330      0.10124002
      3282.03      0.65809131      0.10266575
      3285.31      0.64092298      0.10024078
      3288.60      0.62396592     0.099446156
      3291.88      0.60677403      0.10087837
      3295.18      0.58513726      0.10000300
      3298.47      0.55655690     0.097692111
      3301.77      0.58239750     0.096975102
      3305.07      0.56133035     0.098260587
      3308.38      0.53421957     0.095979913
      3311.69      0.53500600     0.095263969
      3315.00      0.54580443     0.096564053
      3318.31      0.53055224     0.094309059
      3321.63      0.46765392     0.093594080
      3324.95      0.47921192     0.094913764
      3328.28      0.50770850     0.092681497
      3331.61      0.50319759     0.091965195
      3334.94      0.47774855     0.091317033
      3338.27      0.47572497     0.091096598
      3341.61      0.47510949     0.090377421
      3344.95      0.44244720     0.089724445
      3348.30      0.44472256     0.089551725
      3351.65      0.44783002     0.088831286
      3355.00      0.40165220     0.088174497
      3358.35      0.45016588     0.086250953
      3361.71      0.47351958     0.087328745
      3365.07      0.48575751     0.086669141
      3368.44      0.49473440     0.086070178
      3371.81      0.52921786     0.084120289
      3375.18      0.51851861     0.085207251
      3378.56      0.52006342     0.084600835
      3381.94      0.51768919     0.082735920
      3385.32      0.56763519     0.083785936
      3388.70      0.52798501     0.083174206
      3392.09      0.50698683     0.081393932
      3395.48      0.52959050     0.080737083
      3398.88      0.54255225     0.081792206
      3402.28      0.49687491     0.081230170
      3405.68      0.48034094     0.079435641
      3409.09      0.48389818     0.080453579
      3412.49      0.43056229     0.079885161
      3415.91      0.43688426     0.078177359
      3419.32      0.42236181     0.077563878
      3422.74      0.40665384     0.078584532
      3426.17      0.36914541     0.076964860
      3429.59      0.34837270     0.076344941
      3433.02      0.39388496     0.075772449
      3436.45      0.38048229     0.076793680
      3439.89      0.38535100     0.075167836
      3443.33      0.38919144     0.074589966
      3446.78      0.38153290     0.074057086
      3450.22      0.38059489     0.074037354
      3453.67      0.38061585     0.073451976
      3457.13      0.43524512     0.072912636
      3460.58      0.43513607     0.072951145
      3464.04      0.42366610     0.072360777
      3467.51      0.44910577     0.071812900
      3470.98      0.44292381     0.071308984
      3474.45      0.44035872     0.071314150
      3477.92      0.43016097     0.070758500
      3481.40      0.46433504     0.070246140
      3484.88      0.43324555     0.068762747
      3488.37      0.43228898     0.069750849
      3491.86      0.46759838     0.069229141
      3495.35      0.48189334     0.068748767
      3498.84      0.47670584     0.067310719
      3502.34      0.48193662     0.068260115
      3505.84      0.45719637     0.067769530
      3509.35      0.45220383     0.066334694
      3512.86      0.44329586     0.065922260
      3516.37      0.43962784     0.066838695
      3519.89      0.40853358     0.066376905
      3523.41      0.43263267     0.064983053
      3526.93      0.44273704     0.064592865
      3530.46      0.43813891     0.065480611
      3533.99      0.41527120     0.065045658
      3537.53      0.43054636     0.063690533
      3541.06      0.41647910     0.063323409
      3544.60      0.41252321     0.064187670
      3548.15      0.41839804     0.062832478
      3551.70      0.41706341     0.062457774
      3555.25      0.40299025     0.062112103
      3558.80      0.39889775     0.062957407
      3562.36      0.41362261     0.061636840
      3565.92      0.41869109     0.061281702
      3569.49      0.44972592     0.060956254
      3573.06      0.43924344     0.060661620
      3576.64      0.44018525     0.060499122
      3580.21      0.43565444     0.060162143
      3583.79      0.44237313     0.059854833
      3587.38      0.46167866     0.059577092
      3590.96      0.46489840     0.059416923
      3594.55      0.48728110     0.059097395
      3598.15      0.46300688     0.058806719
      3601.75      0.46143327     0.057658937
      3605.35      0.45886738     0.058389713
      3608.96      0.43863990     0.058086286
      3612.56      0.41363179     0.057810847
      3616.18      0.42534246     0.056692668
      3619.79      0.42193957     0.057413936
      3623.41      0.42722779     0.057125585
      3627.04      0.44689471     0.056864012
      3630.66      0.45989976     0.055778971
      3634.29      0.47653255     0.055486526
      3637.93      0.46281165     0.056216602
      3641.57      0.45242126     0.055967585
      3645.21      0.45004692     0.054917223
      3648.86      0.45428302     0.054637842
      3652.50      0.46529211     0.055358322
      3656.16      0.46256855     0.055120721
      3659.81      0.45467684     0.054106547
      3663.47      0.45660194     0.053839203
      3667.14      0.46581184     0.053593252
      3670.80      0.46266561     0.054320645
      3674.48      0.45726055     0.053344699
      3678.15      0.46334266     0.053088445
      3681.83      0.45105990     0.052852835
      3685.51      0.46285975     0.052637915
      3689.20      0.46888332     0.052632760
      3692.88      0.48837569     0.052386649
      3696.58      0.49552113     0.052160349
      3700.27      0.51210500     0.051953941
      3703.98      0.51643599     0.051970397
      3707.68      0.51541272     0.051732269
      3711.39      0.51947395     0.051513633
      3715.10      0.52532278     0.051314862
      3718.81      0.52773007     0.050376155
      3722.53      0.52883486     0.051125197
      3726.26      0.56763507     0.050913924
      3729.98      0.58235765     0.050721775
      3733.71      0.54466373     0.050547378
      3737.45      0.54901467     0.049636044
      3741.18      0.54568472     0.050360493
      3744.93      0.55857541     0.050174221
      3748.67      0.56876627     0.050005034
      3752.42      0.56733120     0.049101680
      3756.17      0.57433946     0.048964787
      3759.93      0.60097788     0.049671226
      3763.69      0.62075227     0.049505863
      3767.45      0.60578088     0.048609315
      3771.22      0.59410531     0.048476196
      3774.99      0.61290226     0.048359106
      3778.77      0.60835625     0.049051428
      3782.54      0.59490627     0.048906494
      3786.33      0.59928799     0.048029899
      3790.11      0.58342265     0.047915172
      3793.90      0.56379248     0.047814977
      3797.70      0.58518169     0.047728894
      3801.50      0.58676554     0.047625948
      3805.30      0.58326560     0.047513089
      3809.10      0.59739800     0.047413429
      3812.91      0.61527314     0.047328452
      3816.73      0.60345982     0.047257110
      3820.54      0.60450391     0.047151955
      3824.36      0.61381915     0.047053177
      3828.19      0.60654263     0.046968352
      3832.02      0.60757012     0.046896600
      3835.85      0.61350013     0.046837778
      3839.68      0.62008994     0.046734744
      3843.52      0.61424895     0.046649576
      3847.37      0.63088533     0.046576280
      3851.22      0.62392189     0.046516303
      3855.07      0.63561746     0.045751719
      3858.92      0.63128375     0.045667440
      3862.78      0.65199699     0.046296781
      3866.64      0.67003148     0.046234989
      3870.51      0.66927591     0.046184642
      3874.38      0.68791074     0.045439031
      3878.26      0.64806018     0.045365541
      3882.13      0.65321412     0.045303505
      3886.02      0.68563711     0.045941225
      3889.90      0.69016764     0.045899085
      3893.79      0.70249370     0.045176083
      3897.69      0.71846188     0.045111088
      3901.59      0.74111904     0.045056346
      3905.49      0.77963248     0.045012231
      3909.39      0.79318202     0.045657631
      3913.30      0.79290379     0.044959096
      3917.22      0.79508593     0.044901398
      3921.13      0.83011833     0.044853963
      3925.06      0.86354222     0.044814944
      3928.98      0.86397093     0.044785901
      3932.91      0.87840226     0.044787213
      3936.84      0.89341678     0.044735795
      3940.78      0.91975652     0.044692618
      3944.72      0.97105049     0.044659053
      3948.67       1.0001928     0.044634319
      3952.61       1.0043611     0.043933458
      3956.57       1.0109830     0.044610906
      3960.52       1.0350192     0.044572749
      3964.48       1.0350972     0.044541984
      3968.45       1.0386307     0.044520236
      3972.42       1.0370129     0.044507439
      3976.39       1.0383443     0.043813383
      3980.37       1.0502816     0.043813962
      3984.35       1.0561067     0.044463361
      3988.33       1.0462631     0.044443389
      3992.32       1.0376615     0.044431119
      3996.31       1.0281621     0.043736578
      4000.31       1.0218456     0.043737871
      4004.31       1.0032000     0.043746174
      4008.31      0.99283752     0.043761798
      4012.32      0.97771532     0.044390499
      4016.33      0.95276475     0.044385017
      4020.35      0.94663459     0.043693420
      4024.37      0.90621835     0.043700467
      4028.40      0.90658533     0.043714883
      4032.42      0.88173795     0.043735327
      4036.46      0.88339377     0.043761955
      4040.50      0.86186929     0.044376732
      4044.54      0.87107126     0.043686224
      4048.58      0.86849987     0.043698143
      4052.63      0.86292627     0.043715632
      4056.68      0.85905067     0.043738779
      4060.74      0.84041622     0.043768159
      4064.80      0.82278129     0.043802980
      4068.86      0.81526593     0.043709774
      4072.93      0.81651168     0.043723296
      4077.01      0.82043206     0.043742411
      4081.08      0.82187615     0.043766845
      4085.17      0.82105195     0.043796111
      4089.25      0.83328044     0.043830347
      4093.34      0.82575352     0.043171626
      4097.43      0.83124509     0.043186125
      4101.53      0.83074681     0.043791935
      4105.63      0.81961375     0.043815451
      4109.74      0.82837191     0.043843295
      4113.85      0.83068401     0.043876137
      4117.96      0.83624079     0.043244605
      4122.08      0.82361797     0.043257564
      4126.20      0.83552498     0.043273600
      4130.33      0.83884309     0.043294134
      4134.46      0.84497606     0.043907121
      4138.59      0.85687855     0.043936433
      4142.73      0.83875675     0.043969438
      4146.88      0.82445578     0.043346691
      4151.02      0.83200811     0.043360046
      4155.18      0.83577276     0.043376544
      4159.33      0.81717917     0.043397019
      4163.49      0.82091588     0.043419746
      4167.65      0.81892207     0.043446468
      4171.82      0.81569814     0.043451216
      4175.99      0.81193766     0.043460597
      4180.17      0.81317139     0.043472105
      4184.35      0.80129741     0.043487156
      4188.54      0.81057514     0.043504867
      4192.72      0.80749288     0.043525153
      4196.92      0.80557903     0.043548796
      4201.11      0.81247604     0.043574783
      4205.31      0.81357219     0.042948565
      4209.52      0.79832570     0.043590242
      4213.73      0.79951103     0.043601983
      4217.94      0.78861506     0.043615376
      4222.16      0.78080165     0.043631876
      4226.38      0.80692640     0.043651543
      4230.61      0.80385181     0.043672492
      4234.84      0.80078745     0.043041094
      4239.08      0.80676316     0.043067042
      4243.32      0.79437769     0.043094997
      4247.56      0.79287476     0.043124967
      4251.81      0.78394529     0.043157547
      4256.06      0.77938839     0.043759491
      4260.32      0.77912789     0.043775782
      4264.58      0.80339725     0.043794834
      4268.84      0.80899182     0.043158655
      4273.11      0.79567066     0.043180740
      4277.38      0.80656600     0.043205398
      4281.66      0.81819902     0.043231676
      4285.94      0.82026934     0.043259722
      4290.23      0.83772294     0.043290052
      4294.52      0.82592570     0.043321240
      4298.81      0.82791072     0.043354705
      4303.11      0.83001685     0.043275681
      4307.42      0.81281788     0.043294251
      4311.72      0.80355031     0.043314068
      4316.04      0.82069390     0.043336210
      4320.35      0.81366295     0.043359908
      4324.67      0.80146055     0.043384829
      4329.00      0.82927335     0.043411834
      4333.33      0.82778945     0.043439406
      4337.66      0.81429064     0.043468844
      4342.00      0.79957106     0.042861910
      4346.34      0.80884638     0.042877383
      4350.69      0.81825074     0.042893951
      4355.04      0.81579825     0.042911602
      4359.39      0.82314748     0.042931032
      4363.75      0.82851468     0.043504030
      4368.12      0.83648208     0.043526626
      4372.48      0.84076279     0.043550335
      4376.86      0.85405303     0.043574957
      4381.23      0.85763687     0.043000868
      4385.61      0.85877689     0.043013013
      4390.00      0.89308313     0.043025974
      4394.39      0.91226263     0.043040456
      4398.79      0.90593136     0.043055779
      4403.18      0.91071147     0.043071910
      4407.59      0.91654994     0.043088793
      4412.00      0.93719553     0.043107177
      4416.41      0.96467223     0.043126375
      4420.82      0.98422839     0.043146129
      4425.25       1.0153783     0.043167309
      4429.67       1.0277534     0.042577581
      4434.10       1.0561180     0.043180645
      4438.54       1.0663302     0.043191885
      4442.97       1.0814796     0.043203701
      4447.42       1.1178676     0.043216242
      4451.86       1.1391872     0.043230173
      4456.32       1.1599205     0.043244633
      4460.77       1.1675217     0.043259624
      4465.24       1.1815333     0.043275862
      4469.70       1.2118739     0.043292621
      4474.17       1.2260211     0.043309746
      4478.65       1.2560751     0.042714942
      4483.12       1.2898018     0.042732782
      4487.61       1.3133032     0.042751147
      4492.09       1.3322405     0.042770309
      4496.59       1.3486178     0.042789259
      4501.08       1.3787860     0.042809142
      4505.58       1.3879015     0.042829821
      4510.09       1.3911666     0.042850154
      4514.60       1.4004593     0.042871289
      4519.12       1.4187227     0.042893248
      4523.63       1.4246474     0.042914802
      4528.16       1.4185575     0.042937126
      4532.69       1.4252070     0.042959378
      4537.22       1.4315608     0.042981752
      4541.76       1.4382351     0.042902694
      4546.30       1.4434063     0.042917861
      4550.85       1.4526657     0.042932804
      4555.40       1.4387837     0.042948498
      4559.95       1.4422813     0.042964767
      4564.51       1.4467544     0.042980673
      4569.08       1.4339003     0.042997291
      4573.65       1.4437987     0.043014482
      4578.22       1.4442804     0.043031215
      4582.80       1.4461825     0.043048519
      4587.38       1.4589347     0.043065367
      4591.97       1.4521030     0.043082767
      4596.56       1.4435981     0.043100683
      4601.16       1.4356607     0.043118014
      4605.76       1.4159683     0.043135888
      4610.37       1.4209664     0.043154336
      4614.98       1.4027905     0.042603690
      4619.59       1.3856569     0.042616277
      4624.21       1.3766619     0.042629380
      4628.84       1.3673882     0.042641809
      4633.47       1.3410241     0.042654819
      4638.10       1.3165001     0.042667757
      4642.74       1.3202503     0.042680727
      4647.38       1.3166558     0.042694174
      4652.03       1.3222354     0.042707571
      4656.68       1.3226935     0.042720928
      4661.34       1.2971063     0.042734713
      4666.00       1.2771488     0.042748433
      4670.67       1.2486734     0.042762062
      4675.33       1.2225213     0.042775616
      4680.01       1.2115435     0.042789055
      4684.69       1.1827836     0.042802872
      4689.38       1.1737885     0.042816607
      4694.07       1.1574268     0.042830169
      4698.76       1.1526024     0.042844080
      4703.46       1.1671401     0.042857881
      4708.16       1.1557938     0.042871460
      4712.87       1.1513710     0.042885386
      4717.58       1.1666380     0.042899203
      4722.30       1.1452447     0.042338708
      4727.03       1.1450936     0.042351709
      4731.75       1.1509507     0.042365278
      4736.48       1.1195101     0.042378564
      4741.22       1.1072474     0.042391502
      4745.96       1.1192625     0.042404975
      4750.71       1.1385004     0.042418191
      4755.46       1.1537670     0.042431046
      4760.22       1.1510691     0.042444442
      4764.97       1.1655717     0.042457448
      4769.74       1.1721887     0.042470361
      4774.51       1.1858475     0.042482989
      4779.29       1.1895207     0.042495313
      4784.07       1.2088685     0.042508233
      4788.85       1.2085095     0.042520764
      4793.64       1.2225191     0.042532989
      4798.43       1.2083559     0.042545760
      4803.23       1.2238484     0.042558254
      4808.03       1.2523853     0.042570398
      4812.84       1.2578637     0.042583111
      4817.66       1.2641855     0.042594974
      4822.48       1.2798106     0.042607405
      4827.30       1.2961252     0.042127619
      4832.12       1.2983860     0.042139705
      4836.96       1.2953010     0.042152071
      4841.79       1.2840002     0.042163728
      4846.63       1.2815649     0.042175789
      4851.48       1.2818950     0.042188170
      4856.33       1.2662456     0.042199876
      4861.19       1.2811629     0.042211968
      4866.05       1.2857250     0.042223397
      4870.92       1.2825203     0.042235243
      4875.79       1.2931434     0.042247442
      4880.66       1.2948198     0.042259019
      4885.55       1.2967511     0.042271024
      4890.43       1.2930499     0.042283432
      4895.32       1.2583591     0.042295208
      4900.22       1.2425781     0.042307435
      4905.12       1.2253669     0.042319691
      4910.02       1.1899085     0.042331942
      4914.94       1.1753738     0.042344673
      4919.85       1.1508608     0.042356816
      4924.77       1.1066179     0.042369417
      4929.70       1.1012897     0.042382588
      4934.62       1.1184360     0.042395211
      4939.56       1.1121376     0.042408316
      4944.50       1.0991907     0.041916635
      4949.44       1.0808357     0.041925151
      4954.39       1.0858078     0.041933713
      4959.35       1.0735619     0.041942724
      4964.31       1.0577339     0.041951729
      4969.27       1.0332966     0.041960726
      4974.24       1.0206449     0.041969694
      4979.22      0.99802104     0.041979355
      4984.20      0.99759187     0.041989957
      4989.18      0.99019505     0.042002224
      4994.17      0.99403802     0.042016197
      4999.16      0.99524467     0.042029880
      5004.16      0.96657218     0.042041815
