# starting wavelength =        3159.2000
# ending wavelength =        7957.2900
# O2 telluric scale =       0.29952113
# O2 telluric shift =        2.6244111
# H2O telluric scale =        0
# H2O telluric shift =        0
      3159.70       1.9770323     0.056843789
      3162.86       1.9561448     0.048984039
      3166.03       1.9363946     0.037104646
      3169.19       1.9176272     0.035795008
      3172.36       1.9019213     0.031518929
      3175.54       1.8843506     0.025856542
      3178.71       1.8659317     0.025398764
      3181.89       1.8502759     0.023238545
      3185.07       1.8372512     0.020604288
      3188.26       1.8254574     0.020318078
      3191.45       1.8124981     0.019310819
      3194.64       1.7965408     0.018047247
      3197.83       1.7849357     0.017640162
      3201.03       1.7730268     0.017313127
      3204.23       1.7637859     0.016640721
      3207.44       1.7546551     0.016492736
      3210.64       1.7398534     0.016155596
      3213.85       1.7346674     0.015748539
      3217.07       1.7286903     0.015728957
      3220.28       1.7320726     0.015708236
      3223.51       1.7245500     0.015382041
      3226.73       1.7207092     0.015684062
      3229.96       1.7231888     0.015662458
      3233.19       1.7240650     0.015336371
      3236.42       1.7261913     0.015639855
      3239.66       1.7221725     0.015616497
      3242.90       1.7126113     0.015916078
      3246.14       1.7175826     0.015595129
      3249.39       1.7217525     0.015569886
      3252.64       1.7197476     0.015866209
      3255.89       1.7278091     0.015550119
      3259.14       1.7362791     0.015522742
      3262.40       1.7491243     0.015816204
      3265.67       1.7560648     0.015818460
      3268.93       1.7509365     0.015476400
      3272.20       1.7570370     0.015766373
      3275.47       1.7614780     0.015765443
      3278.75       1.7728986     0.015780397
      3282.03       1.7759022     0.015715959
      3285.31       1.7801555     0.015711657
      3288.60       1.7822431     0.015722686
      3291.88       1.7845027     0.015665310
      3295.18       1.7858912     0.015657968
      3298.47       1.7895066     0.015665265
      3301.77       1.7904157     0.015969068
      3305.07       1.7902798     0.015604729
      3308.38       1.7879956     0.015947800
      3311.69       1.7886870     0.015918293
      3315.00       1.7876600     0.015551177
      3318.31       1.7866791     0.015901473
      3321.63       1.7904635     0.015867501
      3324.95       1.7975809     0.015848878
      3328.28       1.7975914     0.015856509
      3331.61       1.7961006     0.015818513
      3334.94       1.7994198     0.015795004
      3338.27       1.8022289     0.016124869
      3341.61       1.7950279     0.015770050
      3344.95       1.7921513     0.015741489
      3348.30       1.7908357     0.016064753
      3351.65       1.7914282     0.016068476
      3355.00       1.7868962     0.015689720
      3358.35       1.7863780     0.016006085
      3361.71       1.7817405     0.016003264
      3365.07       1.7758399     0.016017551
      3368.44       1.7730540     0.015949374
      3371.81       1.7637006     0.015939632
      3375.18       1.7484271     0.015946474
      3378.56       1.7528720     0.016291527
      3381.94       1.7515957     0.015878135
      3385.32       1.7486429     0.015877738
      3388.70       1.7412338     0.016237580
      3392.09       1.7356937     0.015818805
      3395.48       1.7397543     0.015811139
      3398.88       1.7367676     0.016186583
      3402.28       1.7462035     0.016156001
      3405.68       1.7582470     0.015747022
      3409.09       1.7631111     0.016139023
      3412.49       1.7727546     0.016100969
      3415.91       1.7866867     0.016077852
      3419.32       1.8041142     0.016447860
      3422.74       1.8134576     0.016049446
      3426.17       1.8237314     0.016017947
      3429.59       1.8374976     0.016375503
      3433.02       1.8655497     0.016380367
      3436.45       1.8752161     0.015963220
      3439.89       1.8773063     0.015938865
      3443.33       1.8932769     0.016303209
      3446.78       1.9082081     0.016314831
      3450.22       1.9191095     0.015879368
      3453.67       1.9341795     0.016231079
      3457.13       1.9475683     0.016231030
      3460.58       1.9612163     0.016249489
      3464.04       1.9735673     0.016164857
      3467.51       1.9832358     0.016153978
      3470.98       1.9871348     0.016160023
      3474.45       2.0000783     0.016555309
      3477.92       2.0078972     0.016083204
      3481.40       2.0175134     0.016077467
      3484.88       2.0242905     0.016501756
      3488.37       2.0330375     0.016465986
      3491.86       2.0491960     0.016448652
      3495.35       2.0613549     0.016456597
      3498.84       2.0811732     0.016409750
      3502.34       2.0907228     0.016379362
      3505.84       2.1084779     0.016366940
      3509.35       2.1153613     0.016362734
      3512.86       2.1227676     0.016319047
      3516.37       2.1265610     0.016293205
      3519.89       2.1378255     0.016701489
      3523.41       2.1329956     0.016715458
      3526.93       2.1258003     0.016229077
      3530.46       2.1275085     0.016619399
      3533.99       2.1351184     0.016616681
      3537.53       2.1398036     0.016633875
      3541.06       2.1419444     0.017073183
      3544.60       2.1352996     0.016530503
      3548.15       2.1385180     0.016529237
      3551.70       2.1502856     0.016548717
      3555.25       2.1429291     0.016978721
      3558.80       2.1407978     0.016440485
      3562.36       2.1363887     0.016441447
      3565.92       2.1359250     0.016921106
      3569.49       2.1294320     0.016885183
      3573.06       2.1385014     0.016867350
      3576.64       2.1415903     0.016882069
      3580.21       2.1524094     0.016825873
      3583.79       2.1549514     0.016789538
      3587.38       2.1627154     0.016772666
      3590.96       2.1597264     0.017256689
      3594.55       2.1584347     0.016732056
      3598.15       2.1560946     0.016694822
      3601.75       2.1583366     0.017148285
      3605.35       2.1584836     0.017155467
      3608.96       2.1647205     0.017186796
      3612.56       2.1758067     0.016598848
      3616.18       2.1772146     0.017047597
      3619.79       2.1777462     0.017051648
      3623.41       2.1888340     0.017080979
      3627.04       2.1986567     0.017585041
      3630.66       2.1997347     0.016947482
      3634.29       2.1863552     0.016948264
      3637.93       2.1820523     0.017533621
      3641.57       2.1705888     0.017484657
      3645.21       2.1603470     0.017459051
      3648.86       2.1633288     0.016841658
      3652.50       2.1609883     0.017439217
      3656.16       2.1550543     0.017384922
      3659.81       2.1449025     0.017353413
      3663.47       2.1413270     0.016734768
      3667.14       2.1321996     0.016744727
      3670.80       2.1240887     0.017287800
      3674.48       2.1053387     0.017250058
      3678.15       2.0885865     0.016627442
      3681.83       2.0804233     0.016631493
      3685.51       2.0784189     0.017193753
      3689.20       2.0666114     0.017149398
      3692.88       2.0441632     0.017124029
      3696.58       2.0263322     0.016517731
      3700.27       2.0065828     0.016531316
      3703.98       1.9871760     0.017049768
      3707.68       1.9732393     0.017016714
      3711.39       1.9630248     0.016405479
      3715.10       1.9567079     0.016411189
      3718.81       1.9565306     0.016435397
      3722.53       1.9450576     0.016915664
      3726.26       1.9450695     0.016298851
      3729.98       1.9431534     0.016293168
      3733.71       1.9464349     0.016305155
      3737.45       1.9420440     0.016817880
      3741.18       1.9330086     0.016783823
      3744.93       1.9247538     0.016178488
      3748.67       1.9193851     0.016180219
      3752.42       1.9183304     0.016198764
      3756.17       1.9085060     0.016683012
      3759.93       1.9007194     0.016070470
      3763.69       1.8812643     0.016060593
      3767.45       1.8598294     0.016065622
      3771.22       1.8375578     0.016089165
      3774.99       1.8270979     0.016551208
      3778.77       1.8213891     0.015947482
      3782.54       1.7994420     0.015941099
      3786.33       1.7853411     0.015949670
      3790.11       1.7819121     0.015974431
      3793.90       1.7830857     0.015844455
      3797.70       1.7917280     0.015825214
      3801.50       1.7997040     0.015819237
      3805.30       1.8148805     0.015830086
      3809.10       1.8252394     0.015856321
      3812.91       1.8348485     0.015720258
      3816.73       1.8522249     0.015701393
      3820.54       1.8726533     0.015696096
      3824.36       1.8938224     0.015705178
      3828.19       1.9040600     0.015730802
      3832.02       1.9170644     0.015595438
      3835.85       1.9279147     0.015575433
      3839.68       1.9425117     0.015570621
      3843.52       1.9516140     0.015579016
      3847.37       1.9549629     0.015601725
      3851.22       1.9538315     0.015049289
      3855.07       1.9476397     0.015451276
      3858.92       1.9477751     0.015442441
      3862.78       1.9536430     0.015448169
      3866.64       1.9623948     0.015466381
      3870.51       1.9698946     0.014929386
      3874.38       1.9745455     0.015325803
      3878.26       1.9843019     0.015314266
      3882.13       1.9917773     0.015314435
      3886.02       1.9980408     0.015328615
      3889.90       1.9991594     0.014812074
      3893.79       2.0107046     0.014784903
      3897.69       2.0107282     0.015185476
      3901.59       2.0092155     0.015181053
      3905.49       2.0158643     0.015188460
      3909.39       2.0030767     0.014698376
      3913.30       2.0044339     0.014666404
      3917.22       1.9922062     0.015056828
      3921.13       1.9778756     0.015046987
      3925.06       1.9616608     0.015046905
      3928.98       1.9348535     0.015059690
      3932.91       1.9284604     0.014552925
      3936.84       1.9171804     0.014525413
      3940.78       1.9052221     0.014917043
      3944.72       1.8955716     0.014909688
      3948.67       1.8873545     0.014912407
      3952.61       1.8779421     0.014443349
      3956.57       1.8663302     0.014410684
      3960.52       1.8535598     0.014385987
      3964.48       1.8470037     0.014775870
      3968.45       1.8472315     0.014770195
      3972.42       1.8317300     0.014773965
      3976.39       1.8239328     0.014303197
      3980.37       1.8137526     0.014271902
      3984.35       1.7978579     0.014248110
      3988.33       1.8001189     0.014231543
      3992.32       1.7960234     0.014628149
      3996.31       1.7936550     0.014205163
      4000.31       1.7912998     0.014167702
      4004.31       1.7945473     0.014135901
      4008.31       1.8008634     0.014111729
      4012.32       1.8047551     0.014094266
      4016.33       1.8112177     0.014484679
      4020.35       1.8186469     0.014073845
      4024.37       1.8313734     0.014035859
      4028.40       1.8499777     0.014003197
      4032.42       1.8727489     0.013977933
      4036.46       1.8850092     0.013957730
      4040.50       1.8960217     0.013944772
      4044.54       1.8989835     0.013948739
      4048.58       1.8972574     0.013908309
      4052.63       1.8980292     0.013874241
      4056.68       1.8907201     0.013847090
      4060.74       1.8795690     0.013824596
      4064.80       1.8776648     0.013808849
      4068.86       1.8715577     0.013797535
      4072.93       1.8639537     0.013789668
      4077.01       1.8536210     0.013752492
      4081.08       1.8410622     0.013721172
      4085.17       1.8187401     0.013695410
      4089.25       1.8015701     0.013675677
      4093.34       1.7873197     0.013659913
      4097.43       1.7809222     0.013230190
      4101.53       1.7740005     0.013639371
      4105.63       1.7674639     0.013603985
      4109.74       1.7537134     0.013573780
      4113.85       1.7399632     0.013548690
      4117.96       1.7296983     0.013528609
      4122.08       1.7188432     0.013513930
      4126.20       1.7144267     0.013087590
      4130.33       1.7124773     0.013080578
      4134.46       1.7063013     0.013463151
      4138.59       1.7050953     0.013432778
      4142.73       1.7106879     0.013407065
      4146.88       1.7148988     0.013386541
      4151.02       1.7119522     0.013369322
      4155.18       1.7121602     0.012945830
      4159.33       1.7133776     0.012936930
      4163.49       1.7171464     0.012931658
      4167.65       1.7113957     0.013299363
      4171.82       1.7094165     0.013271914
      4175.99       1.7052445     0.013248692
      4180.17       1.6877059     0.013230198
      4184.35       1.6727229     0.012808320
      4188.54       1.6627912     0.012796354
      4192.72       1.6596202     0.012788061
      4196.92       1.6499788     0.012782931
      4201.11       1.6435085     0.012781198
      4205.31       1.6376492     0.013121247
      4209.52       1.6362222     0.013098599
      4213.73       1.6345385     0.013080122
      4217.94       1.6319779     0.012662301
      4222.16       1.6327152     0.012649482
      4226.38       1.6336446     0.012639762
      4230.61       1.6290182     0.012633845
      4234.84       1.6231016     0.012630255
      4239.08       1.6184368     0.012630684
      4243.32       1.6167951     0.012956843
      4247.56       1.6013254     0.012937215
      4251.81       1.5861413     0.012522125
      4256.06       1.5754996     0.012507552
      4260.32       1.5579061     0.012495751
      4264.58       1.5408746     0.012487279
      4268.84       1.5384090     0.012481256
      4273.11       1.5314444     0.012477847
      4277.38       1.5233883     0.012476803
      4281.66       1.5167743     0.012478305
      4285.94       1.5139203     0.012784479
      4290.23       1.5163926     0.012373830
      4294.52       1.5100056     0.012359215
      4298.81       1.5045815     0.012347523
      4303.11       1.5040974     0.012338017
      4307.42       1.5068705     0.012330671
      4311.72       1.5030965     0.012325242
      4316.04       1.4968390     0.012322013
      4320.35       1.4951718     0.012320840
      4324.67       1.4899507     0.012321584
      4329.00       1.4887192     0.011937034
      4333.33       1.4853941     0.011922203
      4337.66       1.4892772     0.012208144
      4342.00       1.4868809     0.012196325
      4346.34       1.4950935     0.012185891
      4350.69       1.5057740     0.012177303
      4355.04       1.5058895     0.012171260
      4359.39       1.5064759     0.012166280
      4363.75       1.5204325     0.012163821
      4368.12       1.5277947     0.012162857
      4372.48       1.5330973     0.011802651
      4376.86       1.5308363     0.011787267
      4381.23       1.5305289     0.011772452
      4385.61       1.5398834     0.011759521
      4390.00       1.5468644     0.012043261
      4394.39       1.5502500     0.012033370
      4398.79       1.5455538     0.012024713
      4403.18       1.5461150     0.012017476
      4407.59       1.5444498     0.012011585
      4412.00       1.5420131     0.012006770
      4416.41       1.5476385     0.012003329
      4420.82       1.5619001     0.011670570
      4425.25       1.5728599     0.011655607
      4429.67       1.5822534     0.011641083
      4434.10       1.5888325     0.011628236
      4438.54       1.5908274     0.011615707
      4442.97       1.5982714     0.011604802
      4447.42       1.6133448     0.011594136
      4451.86       1.6165663     0.011584902
      4456.32       1.6252577     0.011577187
      4460.77       1.6290781     0.011860588
      4465.24       1.6301901     0.011854660
      4469.70       1.6368172     0.011849363
      4474.17       1.6378638     0.011844921
      4478.65       1.6356730     0.011535881
      4483.12       1.6234964     0.011522057
      4487.61       1.6177091     0.011508439
      4492.09       1.6109171     0.011496221
      4496.59       1.6074375     0.011484136
      4501.08       1.6132020     0.011473418
      4505.58       1.6192733     0.011462678
      4510.09       1.6158037     0.011453231
      4514.60       1.6118572     0.011445030
      4519.12       1.6096659     0.011436721
      4523.63       1.6049101     0.011429629
      4528.16       1.6004637     0.011422510
      4532.69       1.6056926     0.011416478
      4537.22       1.6035681     0.011410399
      4541.76       1.6011504     0.011405230
      4546.30       1.5933323     0.011401230
      4550.85       1.5926518     0.011080511
      4555.40       1.5888731     0.011391760
      4559.95       1.5900757     0.011380885
      4564.51       1.5838524     0.011369719
      4569.08       1.5724712     0.011359747
      4573.65       1.5631518     0.011350699
      4578.22       1.5538106     0.011341544
      4582.80       1.5409702     0.011333395
      4587.38       1.5375857     0.011325075
      4591.97       1.5316650     0.011317836
      4596.56       1.5225172     0.011310295
      4601.16       1.5136635     0.011303623
      4605.76       1.5032279     0.011298068
      4610.37       1.4952252     0.011292094
      4614.98       1.4836309     0.011287082
      4619.59       1.4777540     0.011281737
      4624.21       1.4657872     0.011277291
      4628.84       1.4535670     0.011272461
      4633.47       1.4491700     0.011268377
      4638.10       1.4547474     0.011265153
      4642.74       1.4586077     0.011261357
      4647.38       1.4591204     0.010944990
      4652.03       1.4613070     0.010941809
      4656.68       1.4530176     0.010938828
      4661.34       1.4499509     0.010935914
      4666.00       1.4447014     0.010933899
      4670.67       1.4423108     0.010931792
      4675.33       1.4349684     0.010929987
      4680.01       1.4370492     0.010928187
      4684.69       1.4363347     0.010926455
      4689.38       1.4308068     0.010924799
      4694.07       1.4205885     0.010923535
      4698.76       1.4092465     0.010922518
      4703.46       1.3973515     0.010921426
      4708.16       1.3866000     0.010920574
      4712.87       1.3754575     0.010919791
      4717.58       1.3629389     0.010919065
      4722.30       1.3569596     0.010918349
      4727.03       1.3509982     0.010918042
      4731.75       1.3422076     0.010917903
      4736.48       1.3317672     0.010917806
      4741.22       1.3292088     0.010917776
      4745.96       1.3214633     0.010917759
      4750.71       1.3142805     0.010917892
      4755.46       1.3073072     0.010917908
      4760.22       1.3043871     0.010918282
      4764.97       1.2927719     0.010918812
      4769.74       1.2992696     0.010919206
      4774.51       1.2907347     0.010919659
      4779.29       1.2787291     0.010920032
      4784.07       1.2729339     0.010920793
      4788.85       1.2736860     0.010921665
      4793.64       1.2644782     0.010922477
      4798.43       1.2571627     0.010923417
      4803.23       1.2489004     0.010924398
      4808.03       1.2386157     0.010925422
      4812.84       1.2263206     0.010926430
      4817.66       1.2154466     0.010927868
      4822.48       1.2027338     0.010929422
      4827.30       1.1924759     0.010931042
      4832.12       1.1880943     0.010932741
      4836.96       1.1856900     0.010934483
      4841.79       1.1796700     0.010936379
      4846.63       1.1772668     0.010938229
