# starting wavelength =        3251.3700
# ending wavelength =        10049.700
# O2 telluric scale =        0
# O2 telluric shift =        0
# H2O telluric scale =        0
# H2O telluric shift =        0
      3252.64      0.42795628     0.052185883
      3255.89      0.43143884     0.043979514
      3259.14      0.44112425     0.036224806
      3262.40      0.44869901     0.031511049
      3265.67      0.45174735     0.027877009
      3268.93      0.44888785     0.025834851
      3272.20      0.45242451     0.023467061
      3275.47      0.45360151     0.021112119
      3278.75      0.43017276     0.019787022
      3282.03      0.41836327     0.018733679
      3285.31      0.41395162     0.018130940
      3288.60      0.42491068     0.017396823
      3291.88      0.42504516     0.016744360
      3295.18      0.42224174     0.016266935
      3298.47      0.40966018     0.015852903
      3301.77      0.40884455     0.015628164
      3305.07      0.41353381     0.015294546
      3308.38      0.40874947     0.014994371
      3311.69      0.40385887     0.014830106
      3315.00      0.39210902     0.014698020
      3318.31      0.38866861     0.014682925
      3321.63      0.37654281     0.014663597
      3324.95      0.36328902     0.014645895
      3328.28      0.35738053     0.014745765
      3331.61      0.35686974     0.014611779
      3334.94      0.35975360     0.014594073
      3338.27      0.36124780     0.014694367
      3341.61      0.35837947     0.014674005
      3344.95      0.36116405     0.014541976
      3348.30      0.36133740     0.014643033
      3351.65      0.36421860     0.014622251
      3355.00      0.37835078     0.014603261
      3358.35      0.38470373     0.014592181
      3361.71      0.39088464     0.014570718
      3365.07      0.39374238     0.014669414
      3368.44      0.38856557     0.014651417
      3371.81      0.39835050     0.014519605
      3375.18      0.40543995     0.014617146
      3378.56      0.43621686     0.014598236
      3381.94      0.44658136     0.014581012
      3385.32      0.46488733     0.014565091
      3388.70      0.47492448     0.014545442
      3392.09      0.50111755     0.014527413
      3395.48      0.51452601     0.014631090
      3398.88      0.51993226     0.014610522
      3402.28      0.53611447     0.014474190
      3405.68      0.56708403     0.014580073
      3409.09      0.59114348     0.014558347
      3412.49      0.60381228     0.014538056
      3415.91      0.61165549     0.014641218
      3419.32      0.62256180     0.014506949
      3422.74      0.64356110     0.014485694
      3426.17      0.64383847     0.014465952
      3429.59      0.64673816     0.014568906
      3433.02      0.65043506     0.014434525
      3436.45      0.64742349     0.014413734
      3439.89      0.65501132     0.014514958
      3443.33      0.65139626     0.014496725
      3446.78      0.65313029     0.014479621
      3450.22      0.65077580     0.014582706
      3453.67      0.66088918     0.014442049
      3457.13      0.66014427     0.014423698
      3460.58      0.65521514     0.014530538
      3464.04      0.65549054     0.014509434
      3467.51      0.65727365     0.014489696
      3470.98      0.66091981     0.014480430
      3474.45      0.66861714     0.014458045
      3477.92      0.66651701     0.014436813
      3481.40      0.67127489     0.014416629
      3484.88      0.67889880     0.014522406
      3488.37      0.69262056     0.014504537
      3491.86      0.69825177     0.014363475
      3495.35      0.70470723     0.014467287
      3498.84      0.71837481     0.014447861
      3502.34      0.72845929     0.014429710
      3505.84      0.73874211     0.014412749
      3509.35      0.73928096     0.014518988
      3512.86      0.74057901     0.014374277
      3516.37      0.74548483     0.014355586
      3519.89      0.75487288     0.014467221
      3523.41      0.75067266     0.014445088
      3526.93      0.74876864     0.014424145
      3530.46      0.74804982     0.014404339
      3533.99      0.74919387     0.014514473
      3537.53      0.74608376     0.014371835
      3541.06      0.74163420     0.014350395
      3544.60      0.73850424     0.014330029
      3548.15      0.73605667     0.014438777
      3551.70      0.74392711     0.014420462
      3555.25      0.75059859     0.014402491
      3558.80      0.75527110     0.014513737
      3562.36      0.76725219     0.014363162
      3565.92      0.76779913     0.014343218
      3569.49      0.76461714     0.014324241
      3573.06      0.76513669     0.014439612
      3576.64      0.76219190     0.014417725
      3580.21      0.76052644     0.014396825
      3583.79      0.76511206     0.014376903
      3587.38      0.76358168     0.014490920
      3590.96      0.75665936     0.014345831
      3594.55      0.75081215     0.014323316
      3598.15      0.75133411     0.014301502
      3601.75      0.74961052     0.014412869
      3605.35      0.74610553     0.014392655
      3608.96      0.74483015     0.014373292
      3612.56      0.73705295     0.014354846
      3616.18      0.72387237     0.014472499
      3619.79      0.71542121     0.014451131
      3623.41      0.70570179     0.014430670
      3627.04      0.70426745     0.014276614
      3630.66      0.70047767     0.014257317
      3634.29      0.69169528     0.014377822
      3637.93      0.68780054     0.014355001
      3641.57      0.68722348     0.014333004
      3645.21      0.68126560     0.014311797
      3648.86      0.67372709     0.014428330
      3652.50      0.66938629     0.014408505
      3656.16      0.66763582     0.014389430
      3659.81      0.66278733     0.014371107
      3663.47      0.65665021     0.014352904
      3667.14      0.64502247     0.014471412
      3670.80      0.62585611     0.014450030
      3674.48      0.60901997     0.014428723
      3678.15      0.59165035     0.014268819
      3681.83      0.57852582     0.014397712
      3685.51      0.56163005     0.014374533
      3689.20      0.53991584     0.014352125
      3692.88      0.51728147     0.014330398
      3696.58      0.49052307     0.014309353
      3700.27      0.46897309     0.014430362
      3703.98      0.43837907     0.014409580
      3707.68      0.41560119     0.014389204
      3711.39      0.38710534     0.014368983
      3715.10      0.36271488     0.014349066
      3718.81      0.34389161     0.014478054
      3722.53      0.33023374     0.014455501
      3726.26      0.31503033     0.014433636
      3729.98      0.29746760     0.014412401
      3733.71      0.28706003     0.014391474
      3737.45      0.28773921     0.014370614
      3741.18      0.27814382     0.014498309
      3744.93      0.27181245     0.014477907
      3748.67      0.27278964     0.014457797
      3752.42      0.27474214     0.014437525
      3756.17      0.28056610     0.014417794
      3759.93      0.28396037     0.014548908
      3763.69      0.28271960     0.014526855
      3767.45      0.29163658     0.014505416
      3771.22      0.29672029     0.014483779
      3774.99      0.29965463     0.014462390
      3778.77      0.31217922     0.014441216
      3782.54      0.32032869     0.014575235
      3786.33      0.32387795     0.014554319
      3790.11      0.33311264     0.014533319
      3793.90      0.34482805     0.014512522
      3797.70      0.35565609     0.014492236
      3801.50      0.37212696     0.014472464
      3805.30      0.38916289     0.014610636
      3809.10      0.41228886     0.014588030
      3812.91      0.42551077     0.014565618
      3816.73      0.44272676     0.014543367
      3820.54      0.46409715     0.014521261
      3824.36      0.49576923     0.014499308
      3828.19      0.52216775     0.014477180
      3832.02      0.54517590     0.014617202
      3835.85      0.57766216     0.014595399
      3839.68      0.61503654     0.014574234
      3843.52      0.65205231     0.014552647
      3847.37      0.68400117     0.014531166
      3851.22      0.72092111     0.014509743
      3855.07      0.75704758     0.014488399
      3858.92      0.79300637     0.014640652
      3862.78      0.83175971     0.014617442
      3866.64      0.86494318     0.014594386
      3870.51      0.89004261     0.014570933
      3874.38      0.91677693     0.014548082
      3878.26      0.94323733     0.014525448
      3882.13      0.96917439     0.014502648
      3886.02      0.99011649     0.014656858
      3889.90       1.0061071     0.014806303
      3893.79       1.0124055     0.014783185
      3897.69       1.0297376     0.014760145
      3901.59       1.0467471     0.014737216
      3905.49       1.0664914     0.014714447
      3909.39       1.0914732     0.014691264
      3913.30       1.1230187     0.014668325
      3917.22       1.1543783     0.014645222
      3921.13       1.1840566     0.014622241
      3925.06       1.2122678     0.014777566
      3928.98       1.2484238     0.014754418
      3932.91       1.2768570     0.014731312
      3936.84       1.3058313     0.014708273
      3940.78       1.3347434     0.014685358
      3944.72       1.3640093     0.014662625
      3948.67       1.3877915     0.014639387
      3952.61       1.4128364     0.014615908
      3956.57       1.4342922     0.014592617
      3960.52       1.4513705     0.014569445
      3964.48       1.4604406     0.014370860
      3968.45       1.4748092     0.014348090
      3972.42       1.4905073     0.014325374
      3976.39       1.5005064     0.014302743
      3980.37       1.5110123     0.014279876
      3984.35       1.5192559     0.014257202
      3988.33       1.5230934     0.014234724
      3992.32       1.5251335     0.014212059
      3996.31       1.5209489     0.014189502
      4000.31       1.5206347     0.014167019
      4004.31       1.5173634     0.014144592
      4008.31       1.5077748     0.014122241
      4012.32       1.5019605     0.014100001
      4016.33       1.4892976     0.014077922
      4020.35       1.4779359     0.014055670
      4024.37       1.4586489     0.014033773
      4028.40       1.4405983     0.014011610
      4032.42       1.4169383     0.013989746
      4036.46       1.3970369     0.013968059
      4040.50       1.3762263     0.013946706
      4044.54       1.3544513     0.013744252
      4048.58       1.3419327     0.013890464
      4052.63       1.3252773     0.013867459
      4056.68       1.3154037     0.013844411
      4060.74       1.3010850     0.013821361
      4064.80       1.2901372     0.013798251
      4068.86       1.2825150     0.013775458
      4072.93       1.2705244     0.013752923
      4077.01       1.2513963     0.013730632
      4081.08       1.2344617     0.013708585
      4085.17       1.2161241     0.013686811
      4089.25       1.1999106     0.013665367
      4093.34       1.1808971     0.013475983
      4097.43       1.1669890     0.013452010
      4101.53       1.1493051     0.013428400
      4105.63       1.1356741     0.013404809
      4109.74       1.1199291     0.013381549
      4113.85       1.1082815     0.013358620
      4117.96       1.0992962     0.013335986
      4122.08       1.0969390     0.013313699
      4126.20       1.0956496     0.013455434
      4130.33       1.1051415     0.013277409
      4134.46       1.1098962     0.013252291
      4138.59       1.1065524     0.013227659
      4142.73       1.1030845     0.013203133
      4146.88       1.0986936     0.013179069
      4151.02       1.0865631     0.013155455
      4155.18       1.0750408     0.013132301
      4159.33       1.0690456     0.013109629
      4163.49       1.0620844     0.012936155
      4167.65       1.0553029     0.012914284
      4171.82       1.0475446     0.012893346
      4175.99       1.0378534     0.013024282
      4180.17       1.0329934     0.012999491
      4184.35       1.0311005     0.012975288
      4188.54       1.0224242     0.012951675
      4192.72       1.0242937     0.012928676
      4196.92       1.0292076     0.012757045
      4201.11       1.0323437     0.012735617
      4205.31       1.0334281     0.012714359
      4209.52       1.0421134     0.012694188
      4213.73       1.0396741     0.012675183
      4217.94       1.0357753     0.012793691
      4222.16       1.0317293     0.012622496
      4226.38       1.0252922     0.012600211
      4230.61       1.0140490     0.012578697
      4234.84       1.0060430     0.012557996
      4239.08      0.99822953     0.012538162
      4243.32      0.98496958     0.012518750
      4247.56      0.97358931     0.012344212
      4251.81      0.96876931     0.012466000
      4256.06      0.95931361     0.012444013
      4260.32      0.95223895     0.012422989
      4264.58      0.94241430     0.012402916
      4268.84      0.93165604     0.012235786
      4273.11      0.92551294     0.012212198
      4277.38      0.91562904     0.012189317
      4281.66      0.90711595     0.012309735
      4285.94      0.89565951     0.012289114
      4290.23      0.88469598     0.012269212
      4294.52      0.86922876     0.012103051
      4298.81      0.85096041     0.012079605
      4303.11      0.83568389     0.012057235
      4307.42      0.81214256     0.012176579
      4311.72      0.79670492     0.012156313
      4316.04      0.79014858     0.011993585
      4320.35      0.78338879     0.011969476
      4324.67      0.77955291     0.011946997
      4329.00      0.78913212     0.011925394
      4333.33      0.80262023     0.011909413
      4337.66      0.81085421     0.011883863
      4342.00      0.82628792     0.011859663
      4346.34      0.84379590     0.011836845
      4350.69      0.86370188     0.011815449
      4355.04      0.88094093     0.011664162
      4359.39      0.90263686     0.011773370
      4363.75      0.91760825     0.011749517
      4368.12      0.92719337     0.011726974
      4372.48      0.93186768     0.011576069
      4376.86      0.93544851     0.011556838
      4381.23      0.93080803     0.011662638
      4385.61      0.93118771     0.011639210
      4390.00      0.92302761     0.011488206
      4394.39      0.91805971     0.011468097
      4398.79      0.91745531     0.011449884
      4403.18      0.91146504     0.011551751
      4407.59      0.90332387     0.011401372
      4412.00      0.90101090     0.011381104
      4416.41      0.89335383     0.011362545
      4420.82      0.88939873     0.011464321
      4425.25      0.88988272     0.011314311
      4429.67      0.89930437     0.011293576
      4434.10      0.90631461     0.011274952
      4438.54      0.91893548     0.011258478
      4442.97      0.93805374     0.011228035
      4447.42      0.95756012     0.011207676
      4451.86      0.97424550     0.011189251
      4456.32      0.99385742     0.011040805
      4460.77       1.0156173     0.011141526
      4465.24       1.0355515     0.011121047
      4469.70       1.0518362     0.011102897
      4474.17       1.0728587     0.010954525
      4478.65       1.0967079     0.011055240
      4483.12       1.1211911     0.011035883
      4487.61       1.1374372     0.010891985
      4492.09       1.1475196     0.010869412
      4496.59       1.1623632     0.010969548
      4501.08       1.1799412     0.010829220
      4505.58       1.1897066     0.010805287
      4510.09       1.2035263     0.010783880
      4514.60       1.2168275     0.010884633
      4519.12       1.2298845     0.010742840
      4523.63       1.2525277     0.010720311
      4528.16       1.2717657     0.010700137
      4532.69       1.2884831     0.010680089
      4537.22       1.3034565     0.010656436
      4541.76       1.3282862     0.010635240
      4546.30       1.3546556     0.010617120
      4550.85       1.3744457     0.010593308
      4555.40       1.3988647     0.010571718
      4559.95       1.4328442     0.010440119
      4564.51       1.4616673     0.010530114
      4569.08       1.4881230     0.010508001
      4573.65       1.5086602     0.010376421
      4578.22       1.5286043     0.010466378
      4582.80       1.5462308     0.010443926
      4587.38       1.5607442     0.010313301
      4591.97       1.5667634     0.010403608
      4596.56       1.5754056     0.010381034
      4601.16       1.5828256     0.010250776
      4605.76       1.5891795     0.010234174
      4610.37       1.5984017     0.010207425
      4614.98       1.6036284     0.010187799
      4619.59       1.6077117     0.010171276
      4624.21       1.6087653     0.010144605
      4628.84       1.6189429     0.010125850
      4633.47       1.6268776     0.010109914
      4638.10       1.6326395     0.010082420
      4642.74       1.6399195     0.010063993
      4647.38       1.6356961    0.0099357280
      4652.03       1.6315749     0.010019891
      4656.68       1.6205421     0.010002072
      4661.34       1.5981051    0.0098734940
      4666.00       1.5762249    0.0099584628
      4670.67       1.5509652    0.0099416630
      4675.33       1.5217456    0.0098122716
      4680.01       1.4931535    0.0098971727
      4684.69       1.4617142    0.0097716992
      4689.38       1.4319951    0.0097505182
      4694.07       1.4002300    0.0098358749
      4698.76       1.3714033    0.0097095328
      4703.46       1.3396851    0.0097930166
      4708.16       1.2988721    0.0096701093
      4712.87       1.2657078    0.0096487904
      4717.58       1.2403332    0.0096316542
      4722.30       1.2095476    0.0096079025
      4727.03       1.1719665    0.0095876600
      4731.75       1.1361878    0.0095678972
      4736.48       1.0940245    0.0095462502
      4741.22       1.0533476    0.0095297873
      4745.96       1.0123545    0.0095063097
      4750.71      0.97460888    0.0094865489
      4755.46      0.93772649    0.0094666178
      4760.22      0.90648142    0.0094450398
      4764.97      0.87733518    0.0093302203
      4769.74      0.85502332    0.0094041638
      4774.51      0.83445363    0.0092888419
      4779.29      0.81789420    0.0093647770
      4784.07      0.80344162    0.0092483065
      4788.85      0.78888496    0.0092320530
      4793.64      0.77847045    0.0093036213
      4798.43      0.77251321    0.0091901245
      4803.23      0.77537631    0.0092628221
      4808.03      0.77272384    0.0091489171
      4812.84      0.76744266    0.0091344879
      4817.66      0.76256634    0.0091088723
      4822.48      0.76015486    0.0090933411
      4827.30      0.75065393    0.0090686908
      4832.12      0.74826366    0.0090522221
      4836.96      0.74894131    0.0090282968
      4841.79      0.75123738    0.0090109472
      4846.63      0.75927079    0.0088984824
      4851.48      0.77225527    0.0089709163
      4856.33      0.79127721    0.0088599401
      4861.19      0.81536791    0.0089310430
      4866.05      0.84654609    0.0088209879
      4870.92      0.88406856    0.0088909382
      4875.79      0.92882035    0.0087816336
      4880.66      0.97868225    0.0088509047
      4885.55       1.0352294    0.0087429790
      4890.43       1.0898880    0.0087234613
      4895.32       1.1489355    0.0087047327
      4900.22       1.2005438    0.0086846878
      4905.12       1.2557264    0.0086660221
      4910.02       1.3035927    0.0086454668
      4914.94       1.3530041    0.0086268187
      4919.85       1.3939125    0.0086064447
      4924.77       1.4312361    0.0085884143
      4929.70       1.4577031    0.0085683282
      4934.62       1.4832009    0.0085501343
      4939.56       1.5022379    0.0085297922
      4944.50       1.5124661    0.0085112807
      4949.44       1.5113804    0.0084908934
      4954.39       1.5059471    0.0084723085
      4959.35       1.4881099    0.0084524413
      4964.31       1.4678107    0.0084340994
      4969.27       1.4351887    0.0083312731
      4974.24       1.3992663    0.0083957592
      4979.22       1.3580899    0.0082935551
      4984.20       1.3144864    0.0083569223
      4989.18       1.2754160    0.0082554780
      4994.17       1.2372271    0.0083183506
