# starting wavelength =        3459.6100
# ending wavelength =        7373.2000
# O2 telluric scale =        0
# O2 telluric shift =        0
# H2O telluric scale =        0
# H2O telluric shift =        0
      3460.58      0.57434018      0.18124121
      3464.04      0.62103819      0.14722335
      3467.51      0.59432190      0.12611543
      3470.98      0.60266701      0.10945524
      3474.45      0.61023198     0.096318295
      3477.92      0.61738535     0.088024069
      3481.40      0.63964105     0.079666881
      3484.88      0.66915199     0.073166510
      3488.37      0.69611390     0.068128392
      3491.86      0.70720822     0.064225787
      3495.35      0.74020091     0.060561047
      3498.84      0.72938471     0.058238175
      3502.34      0.73704048     0.056374232
      3505.84      0.73090955     0.054855056
      3509.35      0.70922922     0.053456941
      3512.86      0.71452506     0.052331205
      3516.37      0.70302272     0.051372124
      3519.89      0.69537577     0.050545449
      3523.41      0.67313494     0.049828344
      3526.93      0.63555555     0.049343458
      3530.46      0.61114503     0.049414143
      3533.99      0.57145100     0.049491088
      3537.53      0.54172411     0.049326208
      3541.06      0.53947629     0.049076743
      3544.60      0.53240552     0.048910029
      3548.15      0.52392034     0.048983275
      3551.70      0.52581633     0.049067416
      3555.25      0.54353015     0.048572253
      3558.80      0.53649461     0.048653261
      3562.36      0.52524384     0.048490305
      3565.92      0.55480261     0.048564416
      3569.49      0.54946316     0.048328714
      3573.06      0.52920847     0.048155126
      3576.64      0.55201879     0.048243811
      3580.21      0.52912137     0.048328995
      3583.79      0.51454492     0.047834736
      3587.38      0.52756039     0.047920922
      3590.96      0.55691476     0.047751491
      3594.55      0.58673623     0.047515203
      3598.15      0.60938689     0.047604495
      3601.75      0.63486471     0.047441750
      3605.35      0.67923506     0.047526792
      3608.96      0.68014430     0.047294672
      3612.56      0.69572983     0.047121555
      3616.18      0.69448061     0.047222221
      3619.79      0.68866326     0.046982134
      3623.41      0.68417197     0.046817381
      3627.04      0.67194496     0.046911305
      3630.66      0.66420910     0.047017162
      3634.29      0.66452268     0.046508728
      3637.93      0.66039878     0.046612859
      3641.57      0.62087813     0.046714199
      3645.21      0.60867301     0.046211288
      3648.86      0.57485723     0.046312229
      3652.50      0.58619506     0.046422058
      3656.16      0.58407300     0.046530924
      3659.81      0.55977572     0.046021138
      3663.47      0.55572437     0.046128582
      3667.14      0.55454347     0.046246264
      3670.80      0.53264055     0.045728673
      3674.48      0.53226213     0.045845287
      3678.15      0.55247592     0.045958999
      3681.83      0.53309698     0.045447121
      3685.51      0.53574113     0.045559108
      3689.20      0.53266414     0.045684507
      3692.88      0.53442480     0.045448200
      3696.58      0.56374780     0.045287231
      3700.27      0.57393096     0.045404457
      3703.98      0.55684926     0.045178635
      3707.68      0.56243429     0.045302847
      3711.39      0.55861144     0.045144924
      3715.10      0.53879886     0.044905992
      3718.81      0.55116019     0.045037636
      3722.53      0.56758869     0.045174392
      3726.26      0.57319938     0.044640519
      3729.98      0.57416847     0.044777586
      3733.71      0.56597939     0.044913649
      3737.45      0.57390278     0.044691703
      3741.18      0.57108789     0.044515600
      3744.93      0.54772828     0.044669787
      3748.67      0.53553412     0.044432697
      3752.42      0.52519956     0.044581470
      3756.17      0.50213066     0.044736425
      3759.93      0.47569126     0.044183935
      3763.69      0.48447065     0.044341247
      3767.45      0.47903570     0.044492896
      3771.22      0.46780749     0.044270562
      3774.99      0.45408030     0.044096851
      3778.77      0.46211520     0.043872460
      3782.54      0.45131573     0.044034986
      3786.33      0.45288215     0.044197706
      3790.11      0.43996544     0.043979422
      3793.90      0.43050272     0.044145502
      3797.70      0.43331279     0.043989759
      3801.50      0.45649396     0.043751574
      3805.30      0.47602841     0.043924892
      3809.10      0.50811801     0.043707942
      3812.91      0.50526117     0.043885399
      3816.73      0.47847877     0.043730832
      3820.54      0.47675414     0.043491213
      3824.36      0.49449842     0.043675371
      3828.19      0.50401469     0.043883164
      3832.02      0.51163703     0.043646579
      3835.85      0.51759561     0.043848598
      3839.68      0.53303259     0.043634110
      3843.52      0.55335540     0.043447692
      3847.37      0.59565909     0.043675667
      3851.22      0.60160456     0.043435536
      3855.07      0.61545468     0.043645732
      3858.92      0.64824788     0.043048938
      3862.78      0.64252997     0.042815307
      3866.64      0.65223091     0.043023796
      3870.51      0.67495839     0.042431493
      3874.38      0.69464155     0.042201527
      3878.26      0.69066756     0.041614496
      3882.13      0.69582616     0.041821066
      3886.02      0.69050862     0.041595054
      3889.90      0.67401845     0.041017092
      3893.79      0.65144687     0.041218434
      3897.69      0.67298302     0.040996560
      3901.59      0.68545896     0.040427214
      3905.49      0.69320581     0.040625782
      3909.39      0.69761784     0.040406112
      3913.30      0.71443382     0.039843269
      3917.22      0.71837604     0.040039507
      3921.13      0.71507746     0.039473126
      3925.06      0.70568822     0.039265904
      3928.98      0.71849289     0.039066825
      3932.91      0.71674880     0.038901535
      3936.84      0.69986501     0.038695187
      3940.78      0.68959803     0.038497427
      3944.72      0.69700462     0.038337499
      3948.67      0.67282938     0.038133071
      3952.61      0.64182959     0.037935358
      3956.57      0.65406314     0.037415234
      3960.52      0.66316786     0.037578299
      3964.48      0.66826052     0.037380490
      3968.45      0.69489145     0.037188800
      3972.42      0.72142971     0.036670772
      3976.39      0.72078441     0.036831836
      3980.37      0.71814005     0.036640126
      3984.35      0.73300434     0.036137689
      3988.33      0.74716462     0.035939615
      3992.32      0.75598576     0.036100347
      3996.31      0.75421811     0.035612962
      4000.31      0.78117309     0.035415650
      4004.31      0.78868490     0.035224442
      4008.31      0.78819379     0.035381855
      4012.32      0.78567875     0.034902188
      4016.33      0.78830905     0.034709278
      4020.35      0.78435638     0.034520529
      4024.37      0.77613315     0.034397966
      4028.40      0.77503621     0.034203236
      4032.42      0.78680687     0.034013783
      4036.46      0.80221703     0.033829548
      4040.50      0.81705160     0.033365275
      4044.54      0.83998158     0.033519668
      4048.58      0.84537749     0.033332954
      4052.63      0.85670857     0.033150859
      4056.68      0.85898660     0.032696420
      4060.74      0.85411969     0.032522869
      4064.80      0.83186651     0.032666772
      4068.86      0.83489050     0.032486914
      4072.93      0.80200247     0.032038410
      4077.01      0.77490361     0.031867259
      4081.08      0.72821837     0.031698051
      4085.17      0.69198224     0.031533108
      4089.25      0.66612499     0.031394396
      4093.34      0.64537709     0.031223294
      4097.43      0.62408958     0.031057069
      4101.53      0.60631152     0.030892428
      4105.63      0.60633232     0.030474268
      4109.74      0.58530797     0.030595784
      4113.85      0.58414265     0.030428947
      4117.96      0.59484633     0.030265948
      4122.08      0.61234647     0.030104328
      4126.20      0.61353507     0.029699365
      4130.33      0.64398703     0.029536142
      4134.46      0.65638331     0.029373543
      4138.59      0.66755929     0.029492933
      4142.73      0.67598364     0.029334565
      4146.88      0.68288992     0.028945533
      4151.02      0.66645839     0.028785896
      4155.18      0.65943342     0.028626701
      4159.33      0.66574626     0.028470497
      4163.49      0.66919860     0.028315996
      4167.65      0.67187356     0.027935586
      4171.82      0.67055948     0.028057533
      4175.99      0.66815032     0.027900589
      4180.17      0.67497006     0.027746471
      4184.35      0.67745286     0.027594475
      4188.54      0.66806487     0.027443476
      4192.72      0.67380672     0.027075163
      4196.92      0.67081320     0.026928747
      4201.11      0.67356304     0.026784217
      4205.31      0.66564399     0.026641380
      4209.52      0.68486567     0.026748717
      4213.73      0.69228741     0.026602627
      4217.94      0.69336326     0.026456575
      4222.16      0.70136457     0.026100403
      4226.38      0.69748593     0.025959068
      4230.61      0.70904191     0.025818420
      4234.84      0.71654356     0.025680215
      4239.08      0.71584800     0.025542063
      4243.32      0.70381922     0.025405892
      4247.56      0.68855237     0.025270597
      4251.81      0.67137582     0.024935484
      4256.06      0.66250043     0.024800535
      4260.32      0.65624582     0.024665495
      4264.58      0.64407033     0.024532188
      4268.84      0.63446049     0.024624720
      4273.11      0.62176046     0.024491572
      4277.38      0.60239729     0.024360445
      4281.66      0.59626924     0.024229309
      4285.94      0.59498302     0.024099916
      4290.23      0.59185004     0.023971165
      4294.52      0.59664898     0.023661186
      4298.81      0.60201172     0.023533244
      4303.11      0.60751776     0.023405850
      4307.42      0.62754056     0.023280059
      4311.72      0.63666341     0.023154826
      4316.04      0.63349846     0.023030377
      4320.35      0.63756812     0.022907311
      4324.67      0.62174810     0.022784178
      4329.00      0.60798877     0.022662871
      4333.33      0.60364470     0.022541359
      4337.66      0.59771284     0.022421264
      4342.00      0.59099106     0.022302145
      4346.34      0.58474730     0.022183433
      4350.69      0.58615012     0.021894155
      4355.04      0.57563734     0.021778190
      4359.39      0.57018851     0.021663251
      4363.75      0.56706833     0.021549003
      4368.12      0.56429983     0.021435183
      4372.48      0.57503729     0.021322383
      4376.86      0.59502874     0.021210004
      4381.23      0.59685397     0.021098836
      4385.61      0.60646618     0.020987743
      4390.00      0.62978845     0.020877672
      4394.39      0.63410776     0.020768588
      4398.79      0.64348395     0.020659926
      4403.18      0.64566342     0.020552476
      4407.59      0.62490771     0.020445149
      4412.00      0.63056808     0.020338903
      4416.41      0.63429958     0.020233448
      4420.82      0.63459385     0.020128462
      4425.25      0.64670822     0.019847714
      4429.67      0.65653180     0.019745390
      4434.10      0.66736362     0.019643805
      4438.54      0.65638114     0.019542986
      4442.97      0.65246924     0.019443010
      4447.42      0.63991697     0.019343744
      4451.86      0.63123918     0.019245266
      4456.32      0.62634947     0.019147542
      4460.77      0.63503451     0.019050568
      4465.24      0.61962453     0.018954532
      4469.70      0.64162706     0.018859014
      4474.17      0.66188462     0.018764337
      4478.65      0.67490468     0.018670384
      4483.12      0.67418772     0.018410142
      4487.61      0.67470832     0.018317272
      4492.09      0.68360888     0.018225360
      4496.59      0.70242984     0.018134171
      4501.08      0.71947914     0.018043503
      4505.58      0.73096355     0.017954059
      4510.09      0.74964044     0.017865057
      4514.60      0.76379420     0.017912705
      4519.12      0.77228738     0.017825054
      4523.63      0.77197423     0.017585546
      4528.16      0.77712993     0.017497988
      4532.69      0.77187110     0.017411513
      4537.22      0.78964162     0.017326220
      4541.76      0.82284325     0.017241244
      4546.30      0.84531742     0.017157845
      4550.85      0.84958864     0.017074835
      4555.40      0.88733705     0.016848750
      4559.95      0.90552303     0.016768542
      4564.51      0.91935696     0.016689386
      4569.08      0.91560517     0.016611411
      4573.65      0.91584350     0.016653823
      4578.22      0.91923177     0.016574504
      4582.80      0.90253746     0.016495636
      4587.38      0.90185375     0.016279155
      4591.97      0.89082556     0.016203353
      4596.56      0.87895847     0.016128760
      4601.16      0.86889962     0.016055482
      4605.76      0.85226421     0.015982785
      4610.37      0.83409223     0.015911819
      4614.98      0.84082410     0.015815674
      4619.59      0.85033809     0.015743905
      4624.21      0.85427062     0.015672835
      4628.84      0.85861024     0.015603470
      4633.47      0.85824956     0.015534916
      4638.10      0.86596145     0.015332851
      4642.74      0.87399207     0.015264262
      4647.38      0.88207819     0.015196332
      4652.03      0.88936960     0.015242797
      4656.68      0.88779333     0.015177053
      4661.34      0.89456045     0.014983575
      4666.00      0.88754789     0.014917244
      4670.67      0.87640760     0.014852585
      4675.33      0.87440423     0.014789183
      4680.01      0.86925453     0.014714199
      4684.69      0.85772191     0.014649975
      4689.38      0.84760462     0.014586813
      4694.07      0.83765205     0.014525707
      4698.76      0.83121721     0.014347249
      4703.46      0.82509863     0.014289342
      4708.16      0.80120187     0.014332838
      4712.87      0.77888779     0.014273297
      4717.58      0.75850861     0.014099265
      4722.30      0.73986780     0.014043166
      4727.03      0.72441003     0.013988684
      4731.75      0.70249775     0.014031353
      4736.48      0.70220631     0.013862277
      4741.22      0.70165279     0.013808063
      4745.96      0.70964876     0.013756007
      4750.71      0.71440359     0.013705255
      4755.46      0.72162957     0.013635398
      4760.22      0.73713769     0.013583780
      4764.97      0.74542511     0.013533979
      4769.74      0.74607560     0.013372035
      4774.51      0.75277844     0.013418807
      4779.29      0.75771118     0.013369978
      4784.07      0.75815707     0.013213577
      4788.85      0.75015139     0.013164327
      4793.64      0.74032207     0.013212475
      4798.43      0.72614272     0.013166662
      4803.23      0.71998352     0.013013341
      4808.03      0.69914128     0.012966846
      4812.84      0.67280743     0.013016782
      4817.66      0.64713230     0.012868213
      4822.48      0.62908990     0.012822687
      4827.30      0.61606608     0.012778964
      4832.12      0.60726746     0.012728592
      4836.96      0.60658832     0.012684200
      4841.79      0.59968546     0.012642066
      4846.63      0.59306712     0.012503657
      4851.48      0.59343863     0.012551851
      4856.33      0.59306522     0.012510869
      4861.19      0.59091381     0.012375358
      4866.05      0.60111236     0.012424483
      4870.92      0.61505819     0.012289196
      4875.79      0.62344545     0.012252279
      4880.66      0.63832046     0.012302560
      4885.55      0.67392394     0.012169840
      4890.43      0.68535012     0.012134694
      4895.32      0.68895816     0.012101930
      4900.22      0.69790796     0.012056044
      4905.12      0.70630063     0.012022860
      4910.02      0.71021824     0.011895441
      4914.94      0.72312105     0.011947617
      4919.85      0.73517574     0.011916250
      4924.77      0.74242025     0.011790972
      4929.70      0.76339754     0.011844443
      4934.62      0.77606313     0.011723103
      4939.56      0.78980521     0.011691370
      4944.50      0.80669569     0.011746554
      4949.44      0.83007217     0.011626479
      4954.39      0.84602257     0.011597048
      4959.35      0.86252146     0.011564713
      4964.31      0.87746558     0.011535161
      4969.27      0.89454461     0.011505882
      4974.24      0.91582448     0.011476282
      4979.22      0.93125020     0.011449414
      4984.20      0.92011187     0.011420173
      4989.18      0.92598014     0.011393197
      4994.17      0.93631319     0.011284820
      4999.16      0.93217139     0.011339756
      5004.16      0.92458575     0.011231988
      5009.17      0.91169172     0.011288867
      5014.18      0.89934450     0.011181733
      5019.19      0.88280574     0.011160565
      5024.21      0.87077710     0.011134008
      5029.23      0.85281018     0.011113274
      5034.26      0.83536948     0.011170894
      5039.30      0.80756168     0.011068349
      5044.34      0.79942170     0.011050672
      5049.39      0.78497173     0.011025733
      5054.43      0.76999738     0.011008447
      5059.49      0.76135581     0.010985365
      5064.55      0.75332312     0.010968539
      5069.61      0.75256163     0.010947179
      5074.68      0.74477660     0.010930832
      5079.76      0.74644309     0.010833318
      5084.84      0.76201786     0.010895489
      5089.92      0.77242257     0.010799605
      5095.01      0.78453752     0.010862334
      5100.11      0.79289280     0.010767916
      5105.21      0.79767954     0.010831395
      5110.31      0.80354647     0.010738252
      5115.42      0.81141277     0.010726120
      5120.54      0.81453997     0.010710378
      5125.66      0.81263861     0.010622445
      5130.79      0.80835683     0.010684429
      5135.92      0.80551575     0.010597880
      5141.05      0.81741084     0.010660538
      5146.20      0.81684659     0.010575207
      5151.34      0.81584259     0.010638490
      5156.49      0.81419138     0.010554502
      5161.65      0.81162899     0.010618344
      5166.81      0.82129552     0.010535802
      5171.98      0.82971741     0.010526208
      5177.15      0.84484971     0.010519098
      5182.33      0.86757153     0.010510184
      5187.51      0.88190530     0.010504489
      5192.70      0.89353891     0.010496070
      5197.89      0.90079280     0.010415960
      5203.09      0.91189036     0.010483713
      5208.29      0.91122683     0.010404127
      5213.50      0.92123181     0.010473390
      5218.72      0.93537474     0.010468426
      5223.93      0.92864729     0.010391824
      5229.16      0.93902435     0.010460351
      5234.39      0.94824742     0.010383895
      5239.62      0.95332356     0.010454432
      5244.86      0.94924653     0.010378073
      5250.11      0.96127691     0.010378545
      5255.36      0.96939267     0.010374127
      5260.61      0.98055684     0.010374660
      5265.87       1.0014310     0.010302844
      5271.14       1.0159304     0.010372717
      5276.41       1.0385568     0.010375544
      5281.69       1.0538290     0.010372848
      5286.97       1.0547012     0.010375520
      5292.26       1.0639471     0.010305964
      5297.55       1.0782688     0.010377619
      5302.85       1.0876228     0.010382252
      5308.15       1.0822256     0.010312961
      5313.46       1.1009306     0.010386317
