# starting wavelength =        3735.0303
# ending wavelength =        9192.1844
# O2 telluric scale =       0.48852921
# O2 telluric shift =        2.2928797
# H2O telluric scale =        0
# H2O telluric shift =        0
      3737.45       1.2333771    0.0062709374
      3741.18       1.2284826    0.0062219981
      3744.93       1.2070207    0.0062482397
      3748.67       1.1870266    0.0062380635
      3752.42       1.1855663    0.0062653374
      3756.17       1.1862423    0.0062561426
      3759.93       1.2040118    0.0062421906
      3763.69       1.1957779    0.0062324661
      3767.45       1.1865473    0.0062232793
      3771.22       1.1978749    0.0062495277
      3774.99       1.1944435    0.0061997441
      3778.77       1.1749446    0.0062269669
      3782.54       1.1762606    0.0062166430
      3786.33       1.1790660    0.0062448074
      3790.11       1.1808875    0.0061941484
      3793.90       1.1829608    0.0062216724
      3797.70       1.1875440    0.0062120374
      3801.50       1.1915266    0.0062400402
      3805.30       1.1893833    0.0062297703
      3809.10       1.1888268    0.0061793695
      3812.91       1.1968344    0.0062069817
      3816.73       1.1946208    0.0061969311
      3820.54       1.1858621    0.0062264038
      3824.36       1.1819967    0.0061741432
      3828.19       1.1807263    0.0062028908
      3832.02       1.1733480    0.0061937108
      3835.85       1.1619794    0.0061798623
      3839.68       1.1559375    0.0061702599
      3843.52       1.1545466    0.0061990602
      3847.37       1.1510688    0.0061888617
      3851.22       1.1422426    0.0061767053
      3855.07       1.1360769    0.0061659696
      3858.92       1.1279675    0.0061957620
      3862.78       1.1197100    0.0061867971
      3866.64       1.1098160    0.0061728153
      3870.51       1.1031213    0.0061633489
      3874.38       1.1002373    0.0061927307
      3878.26       1.0924286    0.0061826940
      3882.13       1.0902741    0.0061700271
      3886.02       1.0810664    0.0061596299
      3889.90       1.0715407    0.0061910754
      3893.79       1.0650199    0.0061369518
      3897.69       1.0600473    0.0061677291
      3901.59       1.0560326    0.0061588095
      3905.49       1.0509647    0.0061445975
      3909.39       1.0416347    0.0061762586
      3913.30       1.0359050    0.0061654213
      3917.22       1.0247945    0.0061978117
      3921.13       1.0093170    0.0061427086
      3925.06       1.0017674    0.0061745273
      3928.98      0.99475640    0.0061654868
      3932.91      0.98307654    0.0061513975
      3936.84      0.97670591    0.0061421447
      3940.78      0.96741843    0.0061733501
      3944.72      0.95317066    0.0061618415
      3948.67      0.94293596    0.0061504401
      3952.61      0.93066395    0.0061837039
      3956.57      0.92080382    0.0061276823
      3960.52      0.91730120    0.0061605105
      3964.48      0.91180330    0.0061515759
      3968.45      0.90499523    0.0061375692
      3972.42      0.89566137    0.0061714853
      3976.39      0.89173712    0.0061604346
      3980.37      0.88845844    0.0061487018
      3984.35      0.88976557    0.0061374235
      3988.33      0.89402836    0.0061724069
      3992.32      0.89974590    0.0061591380
      3996.31      0.90002501    0.0061491338
      4000.31      0.90469787    0.0061834471
      4004.31      0.91283700    0.0061260515
      4008.31      0.91753378    0.0061604297
      4012.32      0.92142110    0.0061963125
      4016.33      0.92807344    0.0061374495
      4020.35      0.93353291    0.0061730850
      4024.37      0.93988829    0.0062094201
      4028.40      0.94651007    0.0061499456
      4032.42      0.95380393    0.0061861165
      4036.46      0.95686128    0.0061753616
      4040.50      0.96396487    0.0061629228
      4044.54      0.96790972    0.0062000981
      4048.58      0.96949682    0.0061914311
      4052.63      0.97291099    0.0061768649
      4056.68      0.97670069    0.0062146711
      4060.74      0.98321496    0.0061539152
      4064.80      0.98884156    0.0061911431
      4068.86      0.98766730    0.0062303665
      4072.93      0.99429986    0.0061678016
      4077.01      0.99934948    0.0062070532
      4081.08       1.0055218    0.0062461216
      4085.17       1.0173629    0.0061837226
      4089.25       1.0254626    0.0062224379
      4093.34       1.0235648    0.0062113401
      4097.43       1.0289808    0.0061990043
      4101.53       1.0363101    0.0062410070
      4105.63       1.0352326    0.0062270629
      4109.74       1.0357901    0.0062176911
      4113.85       1.0345595    0.0062035261
      4117.96       1.0338059    0.0062451166
      4122.08       1.0361130    0.0062338414
      4126.20       1.0328948    0.0062212356
      4130.33       1.0301253    0.0062642985
      4134.46       1.0251167    0.0062509407
      4138.59       1.0188030    0.0062409620
      4142.73       1.0121332    0.0062831063
      4146.88       1.0052096    0.0062714164
      4151.02      0.99976214    0.0062593641
      4155.18      0.99496207    0.0062469692
      4159.33      0.99032187    0.0062919230
      4163.49      0.99126930    0.0062789094
      4167.65      0.98889592    0.0062686594
      4171.82      0.98821395    0.0063128900
      4175.99      0.98548696    0.0063008824
      4180.17      0.98212004    0.0062887644
      4184.35      0.98467239    0.0062761592
      4188.54      0.98578529    0.0063240657
      4192.72      0.98515861    0.0063106155
      4196.92      0.98991502    0.0063009811
      4201.11      0.99606455    0.0063466942
      4205.31       1.0060048    0.0063341951
      4209.52       1.0130373    0.0063236324
      4213.73       1.0160265    0.0063094697
      4217.94       1.0157656    0.0062980249
      4222.16       1.0214805    0.0062258049
      4226.38       1.0289800    0.0062727575
      4230.61       1.0336625    0.0062026731
      4234.84       1.0405403    0.0062483852
      4239.08       1.0439119    0.0062365495
      4243.32       1.0484012    0.0061658010
      4247.56       1.0539707    0.0062117245
      4251.81       1.0560024    0.0061432312
      4256.06       1.0591761    0.0061291220
      4260.32       1.0610245    0.0061753933
      4264.58       1.0657351    0.0061066338
      4268.84       1.0697057    0.0060930733
      4273.11       1.0728001    0.0060849691
      4277.38       1.0793584    0.0060702193
      4281.66       1.0895286    0.0060570757
      4285.94       1.1022662    0.0060486730
      4290.23       1.1122298    0.0060344186
      4294.52       1.1197926    0.0060214123
      4298.81       1.1286211    0.0059538295
      4303.11       1.1400498    0.0059986587
      4307.42       1.1494484    0.0059857585
      4311.72       1.1578078    0.0059187691
      4316.04       1.1657609    0.0059633308
      4320.35       1.1762996    0.0058952589
      4324.67       1.1883964    0.0058836530
      4329.00       1.1959585    0.0059280475
      4333.33       1.1997954    0.0058603041
      4337.66       1.2043946    0.0058488922
      4342.00       1.2064306    0.0058383119
      4346.34       1.2090434    0.0058256588
      4350.69       1.2104034    0.0058139360
      4355.04       1.2076074    0.0058032284
      4359.39       1.2081114    0.0057914299
      4363.75       1.2091494    0.0057794431
      4368.12       1.2100152    0.0057684649
      4372.48       1.2114747    0.0057044366
      4376.86       1.2100911    0.0057450374
      4381.23       1.2099905    0.0057337035
      4385.61       1.2094638    0.0056712594
      4390.00       1.2032687    0.0056588066
      4394.39       1.1983851    0.0056993397
      4398.79       1.1951390    0.0056884882
      4403.18       1.1906518    0.0056254541
      4407.59       1.1832467    0.0056135671
      4412.00       1.1720581    0.0056541994
      4416.41       1.1630300    0.0055929562
      4420.82       1.1580793    0.0055803856
      4425.25       1.1491406    0.0055687033
      4429.67       1.1445690    0.0055609548
      4434.10       1.1449553    0.0055481521
      4438.54       1.1394399    0.0055359352
      4442.97       1.1390352    0.0055242888
      4447.42       1.1397620    0.0055164793
      4451.86       1.1446354    0.0055037064
      4456.32       1.1498987    0.0054917414
      4460.77       1.1541387    0.0054802782
      4465.24       1.1547876    0.0054203447
      4469.70       1.1523082    0.0054599749
      4474.17       1.1450121    0.0054479453
      4478.65       1.1414631    0.0054364512
      4483.12       1.1403920    0.0053769412
      4487.61       1.1355068    0.0053665161
      4492.09       1.1296041    0.0054047419
      4496.59       1.1259793    0.0053930364
      4501.08       1.1240480    0.0053337661
      4505.58       1.1235171    0.0053232476
      4510.09       1.1191365    0.0053129793
      4514.60       1.1173306    0.0053504001
      4519.12       1.1168063    0.0052911861
      4523.63       1.1137889    0.0052803966
      4528.16       1.1135076    0.0052699012
      4532.69       1.1105602    0.0052597674
      4537.22       1.1080167    0.0052029314
      4541.76       1.1090986    0.0052381487
      4546.30       1.1081621    0.0052273212
      4550.85       1.1025510    0.0052169078
      4555.40       1.0998763    0.0052067486
      4559.95       1.0972870    0.0051510722
      4564.51       1.0955329    0.0051399577
      4569.08       1.0942404    0.0051291596
      4573.65       1.0950720    0.0051645243
      4578.22       1.0966324    0.0051543241
      4582.80       1.0961502    0.0051001584
      4587.38       1.0944843    0.0050889912
      4591.97       1.0953137    0.0050779987
      4596.56       1.0947423    0.0050674108
      4601.16       1.0951287    0.0050570891
      4605.76       1.0977856    0.0050503075
      4610.37       1.1014874    0.0050390288
      4614.98       1.1039465    0.0050280200
      4619.59       1.1038063    0.0050172024
      4624.21       1.1080876    0.0050067440
      4628.84       1.1121519    0.0049963972
      4633.47       1.1125497    0.0049431608
      4638.10       1.1106978    0.0049331544
      4642.74       1.1128007    0.0049232259
      4647.38       1.1112951    0.0049135899
      4652.03       1.1093012    0.0049472444
      4656.68       1.1082794    0.0049367481
      4661.34       1.1092537    0.0049263184
      4666.00       1.1084796    0.0048737722
      4670.67       1.1034472    0.0048638883
      4675.33       1.1033641    0.0048540429
      4680.01       1.1039966    0.0048443465
      4684.69       1.1050186    0.0048346022
      4689.38       1.1056229    0.0048249720
      4694.07       1.1057471    0.0048155813
      4698.76       1.1039987    0.0047651033
      4703.46       1.1032359    0.0047552000
      4708.16       1.1010889    0.0047453330
      4712.87       1.0992635    0.0047764039
      4717.58       1.0976617    0.0047666660
      4722.30       1.0970127    0.0047571270
      4727.03       1.0937235    0.0047474901
      4731.75       1.0927980    0.0047379663
      4736.48       1.0892463    0.0047283490
      4741.22       1.0832835    0.0047189819
      4745.96       1.0753309    0.0046710667
      4750.71       1.0693102    0.0046613611
      4755.46       1.0637402    0.0046516780
      4760.22       1.0604151    0.0046420186
      4764.97       1.0614039    0.0046324534
      4769.74       1.0628138    0.0046230635
      4774.51       1.0661540    0.0046136715
      4779.29       1.0686470    0.0046042851
      4784.07       1.0696023    0.0045948898
      4788.85       1.0700466    0.0045856287
      4793.64       1.0742667    0.0045764293
      4798.43       1.0793801    0.0045672091
      4803.23       1.0836416    0.0045579997
      4808.03       1.0870351    0.0045109115
      4812.84       1.0917806    0.0045018004
      4817.66       1.0951961    0.0044928762
      4822.48       1.0985103    0.0044838688
      4827.30       1.1034424    0.0044749048
      4832.12       1.1075039    0.0044658571
      4836.96       1.1076168    0.0044570100
      4841.79       1.1084534    0.0044482029
      4846.63       1.1072839    0.0044393172
      4851.48       1.1080952    0.0044304832
      4856.33       1.1082328    0.0044215822
      4861.19       1.1067385    0.0044127879
      4866.05       1.1045534    0.0044040841
      4870.92       1.1002037    0.0043953095
      4875.79       1.0943117    0.0043865842
      4880.66       1.0889516    0.0043777944
      4885.55       1.0877896    0.0043330079
      4890.43       1.0852651    0.0043245052
      4895.32       1.0808125    0.0043160039
      4900.22       1.0775163    0.0043075114
      4905.12       1.0789269    0.0042990219
      4910.02       1.0831504    0.0042906377
      4914.94       1.0874830    0.0042823012
      4919.85       1.0955859    0.0042739726
      4924.77       1.0992042    0.0042656541
      4929.70       1.1020935    0.0042573462
      4934.62       1.1044630    0.0042492334
      4939.56       1.1081191    0.0042411275
      4944.50       1.1109102    0.0042330527
      4949.44       1.1128368    0.0042249907
      4954.39       1.1141686    0.0041810512
      4959.35       1.1146022    0.0041728090
      4964.31       1.1129648    0.0041646682
      4969.27       1.1117105    0.0041564888
      4974.24       1.1107716    0.0041484287
      4979.22       1.1118552    0.0041403942
      4984.20       1.1084939    0.0041324716
      4989.18       1.1023581    0.0041581429
      4994.17       1.1021280    0.0041502878
      4999.16       1.1024778    0.0041087642
      5004.16       1.1009428    0.0041005695
      5009.17       1.0998641    0.0040925339
      5014.18       1.0977106    0.0040844854
      5019.19       1.0950618    0.0040765606
      5024.21       1.0928205    0.0040686207
      5029.23       1.0905339    0.0040608737
      5034.26       1.0889987    0.0040207482
      5039.30       1.0861618    0.0040132765
      5044.34       1.0828739    0.0040058641
      5049.39       1.0802483    0.0039985935
      5054.43       1.0777973    0.0040221814
      5059.49       1.0743986    0.0040143750
      5064.55       1.0751444    0.0040067407
      5069.61       1.0738105    0.0039670800
      5074.68       1.0727090    0.0039597382
      5079.76       1.0718202    0.0039525274
      5084.84       1.0736807    0.0039454829
      5089.92       1.0774531    0.0039385480
      5095.01       1.0793873    0.0038988292
      5100.11       1.0791210    0.0039220997
      5105.21       1.0787387    0.0039148996
      5110.31       1.0777090    0.0039078315
      5115.42       1.0791173    0.0039009041
      5120.54       1.0815663    0.0038625728
      5125.66       1.0840123    0.0038551847
      5130.79       1.0845151    0.0038479638
      5135.92       1.0837821    0.0038711501
      5141.05       1.0804768    0.0038642191
      5146.20       1.0797222    0.0038267730
      5151.34       1.0796443    0.0038194447
      5156.49       1.0810479    0.0038123433
      5161.65       1.0846600    0.0038053796
      5166.81       1.0849009    0.0037986622
      5171.98       1.0866506    0.0037917553
      5177.15       1.0889671    0.0037844853
      5182.33       1.0903254    0.0037774296
      5187.51       1.0904272    0.0037706364
      5192.70       1.0915496    0.0037348001
      5197.89       1.0907632    0.0037571170
      5203.09       1.0887816    0.0037500126
      5208.29       1.0882056    0.0037431832
      5213.50       1.0892852    0.0037075820
      5218.72       1.0911545    0.0037013913
      5223.93       1.0912099    0.0036954135
      5229.16       1.0897400    0.0037163426
      5234.39       1.0872785    0.0036809612
      5239.62       1.0856946    0.0036747705
      5244.86       1.0856808    0.0036689086
      5250.11       1.0842703    0.0036611948
      5255.36       1.0852909    0.0036548153
      5260.61       1.0857701    0.0036487432
      5265.87       1.0866242    0.0036430250
      5271.14       1.0905889    0.0036078510
      5276.41       1.0931971    0.0036291901
      5281.69       1.0987078    0.0036232997
      5286.97       1.1034893    0.0035890411
      5292.26       1.1064918    0.0035827539
      5297.55       1.1080806    0.0036040740
      5302.85       1.1065148    0.0035706408
      5308.15       1.1074550    0.0035641627
      5313.46       1.1104612    0.0035581384
      5318.77       1.1128649    0.0035524978
      5324.09       1.1145985    0.0035459889
      5329.42       1.1141791    0.0035398171
      5334.75       1.1126714    0.0035341147
      5340.08       1.1118882    0.0035280837
      5345.42       1.1121006    0.0035218637
      5350.77       1.1129594    0.0034896580
      5356.12       1.1136869    0.0035103510
      5361.48       1.1138909    0.0035041377
      5366.83       1.1153611    0.0034721026
      5372.20       1.1148294    0.0034669136
      5377.58       1.1150968    0.0034867604
      5382.95       1.1166959    0.0034549737
      5388.34       1.1162272    0.0034498381
      5393.72       1.1145352    0.0034696420
      5399.12       1.1124528    0.0034380202
      5404.52       1.1075238    0.0034329858
      5409.92       1.1045904    0.0034267828
      5415.33       1.1019192    0.0034213591
      5420.75       1.0972590    0.0034165154
      5426.17       1.0945321    0.0033851594
      5431.60       1.0927627    0.0034050949
      5437.03       1.0937861    0.0034004360
      5442.47       1.0947132    0.0033690471
      5447.91       1.0940857    0.0033891031
      5453.36       1.0921033    0.0033585466
      5458.81       1.0900378    0.0033533107
      5464.27       1.0895080    0.0033483514
      5469.73       1.0868994    0.0033428184
      5475.20       1.0833261    0.0033626861
      5480.68       1.0858876    0.0033327252
      5486.16       1.0874234    0.0033275063
      5491.65       1.0836233    0.0033228660
      5497.14       1.0814246    0.0033173715
      5502.64       1.0843881    0.0032884254
      5508.14       1.0833775    0.0033075762
      5513.65       1.0842380    0.0033025245
      5519.16       1.0847246    0.0032741117
      5524.68       1.0853406    0.0032926771
      5530.20       1.0890538    0.0032642385
      5535.73       1.0917701    0.0032831340
      5541.27       1.0944192    0.0032545086
      5546.81       1.0948390    0.0032505121
      5552.36       1.0952084    0.0032450681
      5557.91       1.0964041    0.0032409637
      5563.47       1.0961255    0.0032357950
      5569.04       1.0941539    0.0032314929
      5574.60       1.0911180    0.0032035161
      5580.18       1.0881321    0.0032223133
      5585.76       1.0867663    0.0031946291
      5591.35       1.0846033    0.0032132567
      5596.94       1.0802179    0.0032096068
      5602.53       1.0809807    0.0032044742
      5608.14       1.0810590    0.0031773265
      5613.75       1.0788763    0.0031727781
      5619.36       1.0738657    0.0031687789
      5624.98       1.0698037    0.0031642844
      5630.60       1.0686808    0.0031604608
      5636.23       1.0659480    0.0031558893
      5641.87       1.0605015    0.0031521780
      5647.51       1.0583800    0.0031476701
      5653.16       1.0553571    0.0031440661
      5658.82       1.0533996    0.0031395715
      5664.47       1.0499907    0.0031359869
      5670.14       1.0442843    0.0031315971
      5675.81       1.0409524    0.0031281093
      5681.48       1.0409111    0.0031237897
      5687.17       1.0413302    0.0030983949
      5692.85       1.0415159    0.0031160771
      5698.55       1.0445743    0.0030909666
      5704.25       1.0441737    0.0030866621
      5709.95       1.0455467    0.0030835611
      5715.66       1.0466322    0.0030792573
      5721.38       1.0496296    0.0030764280
      5727.10       1.0530234    0.0030721168
      5732.83       1.0558937    0.0030694865
