# starting wavelength =        3729.4600
# ending wavelength =        7977.1300
# O2 telluric scale =       0.60231921
# O2 telluric shift =      -0.35271346
# H2O telluric scale =        0
# H2O telluric shift =        0
      3729.98      0.40425456     0.052448060
      3733.71      0.41604316     0.036096245
      3737.45      0.41879831     0.024559178
      3741.18      0.40154172     0.020344965
      3744.93      0.36799538     0.018407997
      3748.67      0.33640685     0.017071473
      3752.42      0.29497477     0.016046593
      3756.17      0.24094037     0.015997678
      3759.93      0.20686099     0.015717578
      3763.69      0.16114765     0.015913627
      3767.45      0.13332966     0.015634157
      3771.22      0.10076480     0.015830069
      3774.99     0.081097907     0.015549955
      3778.77     0.083477728     0.015746701
      3782.54     0.088821311     0.015467058
      3786.33     0.086403457     0.015665515
      3790.11     0.085192511     0.015384791
      3793.90     0.095642713     0.015357859
      3797.70     0.098108097     0.015303921
      3801.50     0.090157220     0.015273966
      3805.30     0.095066638     0.015223381
      3809.10     0.089111837     0.015191076
      3812.91     0.080766363     0.015143737
      3816.73     0.074996795     0.015108474
      3820.54     0.074132491     0.014854215
      3824.36     0.082479827     0.015027915
      3828.19      0.12571402     0.015003286
      3832.02      0.15388318     0.014948425
      3835.85      0.16542891     0.014920102
      3839.68      0.17960283     0.014871174
      3843.52      0.18276690     0.014838855
      3847.37      0.17539680     0.014586406
      3851.22      0.17871685     0.014758760
      3855.07      0.18064386     0.014514283
      3858.92      0.17559576     0.014680434
      3862.78      0.18686327     0.014651956
      3866.64      0.20332895     0.014399931
      3870.51      0.22075144     0.014572248
      3874.38      0.24131399     0.014328473
      3878.26      0.27285029     0.014494834
      3882.13      0.28895594     0.014260109
      3886.02      0.31101357     0.014217923
      3889.90      0.33761095     0.014388297
      3893.79      0.36640177     0.014147252
      3897.69      0.40125110     0.014111105
      3901.59      0.45314132     0.014081558
      3905.49      0.51296944     0.014039701
      3909.39      0.57149738     0.014207195
      3913.30      0.62295555     0.013971926
      3917.22      0.67403215     0.013934347
      3921.13      0.71722971     0.013908300
      3925.06      0.76560000     0.013865481
      3928.98      0.81472367     0.013831398
      3932.91      0.83932998     0.013801807
      3936.84      0.85390659     0.013762175
      3940.78      0.85335875     0.013534036
      3944.72      0.83853134     0.013697928
      3948.67      0.80987057     0.013660994
      3952.61      0.77929327     0.013435699
      3956.57      0.74936900     0.013596220
      3960.52      0.73355889     0.013560622
      3964.48      0.72044302     0.013338528
      3968.45      0.72627494     0.013496257
      3972.42      0.75511598     0.013269523
      3976.39      0.77524394     0.013242776
      3980.37      0.80606072     0.013398370
      3984.35      0.84172160     0.013174024
      3988.33      0.86546025     0.013147822
      3992.32      0.88680080     0.013302309
      3996.31      0.91371655     0.013079623
      4000.31      0.92891812     0.013053367
      4004.31      0.94341831     0.013207993
      4008.31      0.95352353     0.012985734
      4012.32      0.94951188     0.012959696
      4016.33      0.94105204     0.012938772
      4020.35      0.94309616     0.012894111
      4024.37      0.93989154     0.012867014
      4028.40      0.94413489     0.012844995
      4032.42      0.95245980     0.012804192
      4036.46      0.93571237     0.012776124
      4040.50      0.92131039     0.012752916
      4044.54      0.92622162     0.012547152
      4048.58      0.92613129     0.012686965
      4052.63      0.90961487     0.012661495
      4056.68      0.89369436     0.012462362
      4060.74      0.89088113     0.012599469
      4064.80      0.86812057     0.012572817
      4068.86      0.86269873     0.012550448
      4072.93      0.84144744     0.012348229
      4077.01      0.82695456     0.012486324
      4081.08      0.80796895     0.012461791
      4085.17      0.76558731     0.012268549
      4089.25      0.74213986     0.012238283
      4093.34      0.72015263     0.012375786
      4097.43      0.70792354     0.012352444
      4101.53      0.70554185     0.012158857
      4105.63      0.70762361     0.012130280
      4109.74      0.72484797     0.012267247
      4113.85      0.75557198     0.012244692
      4117.96      0.78546668     0.012053163
      4122.08      0.79368407     0.012024848
      4126.20      0.79791831     0.012000047
      4130.33      0.80239296     0.011981569
      4134.46      0.80013762     0.011950802
      4138.59      0.80364274     0.011922724
      4142.73      0.79684955     0.011897082
      4146.88      0.78431284     0.011881962
      4151.02      0.77107531     0.011851634
      4155.18      0.75851032     0.011823484
      4159.33      0.74863523     0.011797673
      4163.49      0.74287397     0.011774159
      4167.65      0.74057155     0.011756046
      4171.82      0.73342101     0.011727577
      4175.99      0.73668632     0.011701115
      4180.17      0.74417499     0.011676783
      4184.35      0.74553431     0.011495737
      4188.54      0.75878669     0.011475355
      4192.72      0.76266629     0.011609150
      4196.92      0.77242791     0.011583788
      4201.11      0.77298206     0.011560216
      4205.31      0.77346283     0.011381095
      4209.52      0.77641951     0.011360793
      4213.73      0.76097190     0.011342345
      4217.94      0.74976892     0.011470803
      4222.16      0.73917079     0.011447446
      4226.38      0.72019866     0.011269770
      4230.61      0.69753291     0.011249266
      4234.84      0.67153813     0.011230398
      4239.08      0.65513674     0.011213176
      4243.32      0.64755525     0.011339520
      4247.56      0.64074706     0.011162881
      4251.81      0.63239671     0.011142036
      4256.06      0.62730312     0.011122220
      4260.32      0.63496218     0.011103956
      4264.58      0.64458386     0.011086462
      4268.84      0.64935986     0.011069949
      4273.11      0.65410090     0.010901446
      4277.38      0.65631213     0.011019743
      4281.66      0.66340933     0.011000593
      4285.94      0.67494991     0.010982051
      4290.23      0.68142961     0.010964272
      4294.52      0.69549890     0.010947220
      4298.81      0.69807366     0.010930546
      4303.11      0.69461737     0.010767669
      4307.42      0.68928420     0.010748476
      4311.72      0.68651594     0.010729725
      4316.04      0.68147838     0.010711621
      4320.35      0.66750564     0.010829825
      4324.67      0.64764355     0.010812875
      4329.00      0.63339736     0.010796943
      4333.33      0.62100021     0.010644328
      4337.66      0.61555819     0.010625258
      4342.00      0.60688690     0.010606396
      4346.34      0.59957477     0.010588324
      4350.69      0.59342800     0.010570979
      4355.04      0.58192738     0.010554381
      4359.39      0.56559169     0.010537744
      4363.75      0.55006608     0.010521452
      4368.12      0.52406229     0.010505498
      4372.48      0.50060379     0.010490162
      4376.86      0.48220580     0.010478935
      4381.23      0.47548738     0.010461479
      4385.61      0.47159554     0.010444431
      4390.00      0.47283265     0.010427621
      4394.39      0.48207874     0.010411469
      4398.79      0.49309225     0.010395554
      4403.18      0.51103129     0.010379884
      4407.59      0.53813210     0.010364035
      4412.00      0.56224298     0.010348743
      4416.41      0.59077318     0.010333938
      4420.82      0.61417893     0.010319628
      4425.25      0.63791956     0.010305198
      4429.67      0.66601787     0.010290914
      4434.10      0.68964178     0.010143024
      4438.54      0.71659949     0.010129319
      4442.97      0.73589590     0.010116077
      4447.42      0.74453487     0.010102729
      4451.86      0.75495294     0.010089537
      4456.32      0.75589993     0.010076492
      4460.77      0.76078694     0.010063448
      4465.24      0.75593218     0.010051041
      4469.70      0.74922598     0.010038433
      4474.17      0.74419615     0.010025928
      4478.65      0.73266653     0.010013190
      4483.12      0.73053662     0.010000899
      4487.61      0.72216006    0.0099890420
      4492.09      0.72288744    0.0099770991
      4496.59      0.72432006    0.0099652230
      4501.08      0.73114739    0.0099531926
      4505.58      0.74138273    0.0099414866
      4510.09      0.74635381    0.0099300948
      4514.60      0.75855343    0.0099190530
      4519.12      0.77089826    0.0099078285
      4523.63      0.78596991    0.0098967080
      4528.16      0.81162051    0.0098854756
      4532.69      0.83752126    0.0097576868
      4537.22      0.85926762    0.0097476753
      4541.76      0.88557849    0.0097374554
      4546.30      0.90217577    0.0097271683
      4550.85      0.91954541    0.0097173442
      4555.40      0.94093190    0.0097079699
      4559.95      0.95698909    0.0096986482
      4564.51      0.95710254    0.0096895040
      4569.08      0.95397621    0.0096804032
      4573.65      0.95877136    0.0096717278
      4578.22      0.96813607    0.0096634895
      4582.80      0.97084591    0.0096557354
      4587.38      0.96739472    0.0096479878
      4591.97      0.96423517    0.0096402007
      4596.56      0.95789021    0.0096285680
      4601.16      0.95172426    0.0096197377
      4605.76      0.93393296    0.0096110670
      4610.37      0.92570737    0.0096027183
      4614.98      0.92781466    0.0095947056
      4619.59      0.93118874    0.0095869771
      4624.21      0.93460892    0.0095799757
      4628.84      0.95149396    0.0095732025
      4633.47      0.98739993    0.0095668720
      4638.10       1.0098714    0.0094430578
      4642.74       1.0344299    0.0094346506
      4647.38       1.0712162    0.0094268930
      4652.03       1.0979324    0.0094197826
      4656.68       1.1209600    0.0095313386
      4661.34       1.1287390    0.0095245625
      4666.00       1.1273713    0.0095185113
      4670.67       1.1304995    0.0094020007
      4675.33       1.1204852    0.0093938647
      4680.01       1.1032240    0.0093859559
      4684.69       1.0840403    0.0093784002
      4689.38       1.0685646    0.0093716745
      4694.07       1.0604425    0.0093658060
      4698.76       1.0471286    0.0094789630
      4703.46       1.0530450    0.0093649479
      4708.16       1.0463434    0.0093568362
      4712.87       1.0498306    0.0093496531
      4717.58       1.0507521    0.0093434114
      4722.30       1.0509497    0.0093376991
      4727.03       1.0440257    0.0092279338
      4731.75       1.0306186    0.0092239459
      4736.48       1.0150053    0.0093317872
      4741.22      0.99877813    0.0093250309
      4745.96      0.97448464    0.0093190107
      4750.71      0.95519001    0.0093136368
      4755.46      0.94069848    0.0092050831
      4760.22      0.92932594    0.0092022188
      4764.97      0.91286922    0.0093092273
      4769.74      0.90494542    0.0093031669
      4774.51      0.90123431    0.0091938303
      4779.29      0.89403964    0.0091901646
      4784.07      0.87996936    0.0091879002
      4788.85      0.86241124    0.0091867148
      4793.64      0.85056725    0.0092898304
      4798.43      0.82941424    0.0091813970
      4803.23      0.80066446    0.0091785143
      4808.03      0.77202386    0.0091771180
      4812.84      0.74337710    0.0091772968
      4817.66      0.71796540    0.0091751492
      4822.48      0.68975174    0.0091719106
      4827.30      0.66656110    0.0091702334
      4832.12      0.64438058    0.0091701437
      4836.96      0.61840464    0.0090615572
      4841.79      0.59313584    0.0091677389
      4846.63      0.56982680    0.0091659836
      4851.48      0.54971225    0.0091660797
      4856.33      0.52939470    0.0090585503
      4861.19      0.51136677    0.0091652354
      4866.05      0.49397824    0.0091638723
      4870.92      0.48197432    0.0091645437
      4875.79      0.47535491    0.0090570814
      4880.66      0.47567738    0.0090551475
      4885.55      0.48933823    0.0091639802
      4890.43      0.49755785    0.0090605660
      4895.32      0.50551270    0.0090572368
      4900.22      0.52155431    0.0090559681
      4905.12      0.54445454    0.0090658913
      4910.02      0.56520394    0.0090613274
      4914.94      0.58616174    0.0090589820
      4919.85      0.61216179    0.0091687857
      4924.77      0.63826050    0.0090668137
      4929.70      0.67402393    0.0090636984
      4934.62      0.71621246    0.0090631039
      4939.56      0.76408440    0.0090729622
      4944.50      0.82457460    0.0090697667
      4949.44      0.88604406    0.0090688607
      4954.39      0.95237022    0.0090799319
      4959.35       1.0412141    0.0090760620
      4964.31       1.1245971    0.0090749840
      4969.27       1.2082123    0.0089801691
      4974.24       1.2958862    0.0090837357
      4979.22       1.3711922    0.0090825115
      4984.20       1.4412167    0.0089876667
      4989.18       1.5069359    0.0090917379
      4994.17       1.5685985    0.0089946241
      4999.16       1.6135346    0.0089969230
      5004.16       1.6461692    0.0091004449
      5009.17       1.6684812    0.0090034009
      5014.18       1.6805212    0.0090064563
      5019.19       1.6799611    0.0091101357
      5024.21       1.6563669    0.0090138417
      5029.23       1.6242161    0.0090178023
      5034.26       1.5808893    0.0090232440
      5039.30       1.5270544    0.0090253323
      5044.34       1.4641035    0.0090303864
      5049.39       1.3935275    0.0090346183
      5054.43       1.3241770    0.0090378947
      5059.49       1.2481836    0.0089418089
      5064.55       1.1676924    0.0090472142
      5069.61       1.1047615    0.0090519618
      5074.68       1.0503651    0.0090579052
      5079.76       1.0048987    0.0090611128
      5084.84      0.96181791    0.0089656892
      5089.92      0.93618812    0.0090714293
      5095.01      0.92516167    0.0089789157
      5100.11      0.91508580    0.0089789174
      5105.21      0.92029849    0.0090877001
      5110.31      0.93455151    0.0089917457
      5115.42      0.94932293    0.0090986135
      5120.54      0.96001896    0.0090048084
      5125.66      0.97195548    0.0090059197
      5130.79      0.98483730    0.0090191365
      5135.92       1.0014830    0.0090188730
      5141.05       1.0221532    0.0090338362
      5146.20       1.0340258    0.0090327514
      5151.34       1.0473309    0.0090495021
      5156.49       1.0514044    0.0090469943
      5161.65       1.0497213    0.0090493573
      5166.81       1.0411570    0.0090616562
      5171.98       1.0364421    0.0090632650
      5177.15       1.0289758    0.0090767392
      5182.33       1.0176605    0.0090775880
      5187.51       1.0029801    0.0090920606
      5192.70      0.99256234    0.0090923607
      5197.89      0.97691650    0.0090058458
      5203.09      0.97757444    0.0091074067
      5208.29      0.97505851    0.0090204214
      5213.50      0.97257607    0.0091227038
      5218.72      0.96860995    0.0090355304
      5223.93      0.95803359    0.0091384010
      5229.16      0.95073807    0.0090510625
      5234.39      0.93683380    0.0091543284
      5239.62      0.93380682    0.0090670785
      5244.86      0.93508760    0.0090777454
      5250.11      0.93622632    0.0090833823
      5255.36      0.95154956    0.0090938375
      5260.61      0.95945605    0.0090999925
      5265.87      0.96764424    0.0091105901
      5271.14      0.98652055    0.0091172053
      5276.41       1.0049527    0.0091269768
      5281.69       1.0325626    0.0091345633
      5286.97       1.0710800    0.0091443512
      5292.26       1.0986694    0.0091529690
      5297.55       1.1059588    0.0091615167
      5302.85       1.1213501    0.0090735346
      5308.15       1.1298055    0.0091797784
      5313.46       1.1375850    0.0090906156
      5318.77       1.1485531    0.0091980316
      5324.09       1.1530494    0.0091078263
      5329.42       1.1462635    0.0091237710
      5334.75       1.1398876    0.0091259706
      5340.08       1.1326773    0.0091403404
      5345.42       1.1350537    0.0092467289
      5350.77       1.1467675    0.0091577758
      5356.12       1.1469370    0.0091747253
      5361.48       1.1384212    0.0091755541
      5366.83       1.1455052    0.0091912205
      5372.20       1.1558891    0.0091943906
      5377.58       1.1706880    0.0092083005
      5382.95       1.1960025    0.0092261100
      5388.34       1.2222236    0.0092266543
      5393.72       1.2433928    0.0092423671
      5399.12       1.2601718    0.0091564054
      5404.52       1.2681023    0.0092601551
      5409.92       1.2675745    0.0091768536
      5415.33       1.2613015    0.0092786581
      5420.75       1.2339631    0.0092940578
      5426.17       1.2029995    0.0092089475
      5431.60       1.1658688    0.0093123548
      5437.03       1.1192933    0.0093285463
      5442.47       1.0889572    0.0092420153
      5447.91       1.0637606    0.0093465222
      5453.36       1.0480583    0.0092636691
      5458.81       1.0513069    0.0092756457
      5464.27       1.0683803    0.0093811645
      5469.73       1.1025807    0.0092977141
      5475.20       1.1481909    0.0093098604
      5480.68       1.2100754    0.0094157526
      5486.16       1.2776590    0.0093317824
      5491.65       1.3508777    0.0093442296
      5497.14       1.4118740    0.0093589466
      5502.64       1.4755606    0.0093667251
      5508.14       1.5305016    0.0093790794
      5513.65       1.5795945    0.0092938479
      5519.16       1.6048344    0.0094025263
      5524.68       1.6237109    0.0094143923
      5530.20       1.6269745    0.0093282394
      5535.73       1.6176720    0.0093439021
      5541.27       1.5919899    0.0094503222
      5546.81       1.5459219    0.0094637958
      5552.36       1.4891165    0.0093781396
      5557.91       1.4281350    0.0093950388
      5563.47       1.3598101    0.0094999998
      5569.04       1.3047181    0.0094129300
      5574.60       1.2474492    0.0094287037
      5580.18       1.2006311    0.0094459349
      5585.76       1.1688706    0.0094482994
      5591.35       1.1526266    0.0094631886
      5596.94       1.1543489    0.0094792229
      5602.53       1.1658254    0.0094966352
      5608.14       1.1836287    0.0094986999
      5613.75       1.2045358    0.0095136416
      5619.36       1.2314551    0.0095295671
      5624.98       1.2582164    0.0095468961
      5630.60       1.2802691    0.0094605489
      5636.23       1.2959329    0.0095638980
      5641.87       1.3086956    0.0095796086
      5647.51       1.3076678    0.0095963490
      5653.16       1.2932087    0.0095109465
      5658.82       1.2596419    0.0095252410
      5664.47       1.2182496    0.0096296854
      5670.14       1.1607233    0.0096457323
      5675.81       1.0900755    0.0095625325
      5681.48       1.0125319    0.0095759840
      5687.17      0.91826348    0.0095901925
      5692.85      0.82467151    0.0096953831
      5698.55      0.73271362    0.0096151420
      5704.25      0.64750435    0.0096278262
      5709.95      0.58428626    0.0096413014
      5715.66      0.53859550    0.0096551673
      5721.38      0.50152647    0.0096699386
