# starting wavelength =        3149.6200
# ending wavelength =        8251.1600
# O2 telluric scale =        0
# O2 telluric shift =        0
# H2O telluric scale =        0
# H2O telluric shift =        0
      3150.24       2.3959448      0.44500837
      3153.39       1.6361738      0.37632361
      3156.55       1.1342694     -0.30146693
      3159.70      0.79114248      0.25030595
      3162.86      0.50814531      0.20597298
      3166.03      0.35743978      0.18442335
      3169.19      0.24665971      0.16924350
      3172.36     0.087451077      0.16132482
      3175.54    -0.015343804      0.15236178
      3178.71      0.11354768      0.14539472
      3181.89      0.10057543      0.14043389
      3185.07      0.13346879      0.13612401
      3188.26      0.15304520      0.13239975
      3191.45     0.078366585      0.12912762
      3194.64     0.082707895      0.13031772
      3197.83      0.14852105      0.12863914
      3201.03      0.27107675      0.12831475
      3204.23      0.29280171      0.12949395
      3207.44      0.22828706      0.12782997
      3210.64      0.36751291      0.12750544
      3213.85      0.33787298      0.12867340
      3217.07      0.31035846      0.12702791
      3220.28      0.19598389      0.12670296
      3223.51      0.11145637      0.12641260
      3226.73      0.10357073      0.12623223
      3229.96      0.16631181      0.12590593
      3233.19      0.23373425      0.12561300
      3236.42      0.28059083      0.12544588
      3239.66      0.29948253      0.12511506
      3242.90      0.38750979      0.12481785
      3246.14      0.50058511      0.12466715
      3249.39      0.51852995      0.12433311
      3252.64      0.55926754      0.12402892
      3255.89      0.57894084      0.12241772
      3259.14      0.70593194      0.12355865
      3262.40      0.76811014      0.12324896
      3265.67      0.76223284      0.12163798
      3268.93      0.69909824      0.12138681
      3272.20      0.63654275      0.12247679
      3275.47      0.64787468      0.12086714
      3278.75      0.67828313      0.12060557
      3282.03      0.71525917      0.12171822
      3285.31      0.81572131      0.12010499
      3288.60      0.78670071      0.11983391
      3291.88      0.73756105      0.11958691
      3295.18      0.72381574      0.12065961
      3298.47      0.68794557      0.11907221
      3301.77      0.57866097      0.11881418
      3305.07      0.57108182      0.11857909
      3308.38      0.51744291      0.11832558
      3311.69      0.48605966      0.11805268
      3315.00      0.43680130      0.11780478
      3318.31      0.49600926      0.11631494
      3321.63      0.52002270      0.11730793
      3324.95      0.53328694      0.11704380
      3328.28      0.52320666      0.11680332
      3331.61      0.43261039      0.11531234
      3334.94      0.33996518      0.11630161
      3338.27      0.29864823      0.11604370
      3341.61      0.25735616      0.11460814
      3344.95      0.28896453      0.11432193
      3348.30      0.28516648      0.11405291
      3351.65      0.25268090      0.11505126
      3355.00      0.21952155      0.11362503
      3358.35      0.33421317      0.11334291
      3361.71      0.41278434      0.11307683
      3365.07      0.49268360      0.11406605
      3368.44      0.60515693      0.11265498
      3371.81      0.70822666      0.11237508
      3375.18      0.74636320      0.11211013
      3378.56      0.79306278      0.11070410
      3381.94      0.80311775      0.11169844
      3385.32      0.68304158      0.11141895
      3388.70      0.63456453      0.11115350
      3392.09      0.53043572      0.10975597
      3395.48      0.46717240      0.11075606
      3398.88      0.42657834      0.11047558
      3402.28      0.43465611      0.11020821
      3405.68      0.39686566      0.10881775
      3409.09      0.29888226      0.10858005
      3412.49      0.23753241      0.10954677
      3415.91      0.21575834      0.10927617
      3419.32      0.18948665      0.10789144
      3422.74      0.24614036      0.10764927
      3426.17      0.21947217      0.10742061
      3429.59      0.20069242      0.10719988
      3433.02      0.23778825      0.10809637
      3436.45      0.25261305      0.10673190
      3439.89      0.30251058      0.10649698
      3443.33      0.48432153      0.10626921
      3446.78      0.59080415      0.10605395
      3450.22      0.66497764      0.10583123
      3453.67      0.80227280      0.10558939
      3457.13      0.84881421      0.10535403
      3460.58      0.89036193      0.10513029
      3464.04      0.88608539      0.10491793
      3467.51      0.92880290      0.10360882
      3470.98      0.85709358      0.10445833
      3474.45      0.84717937      0.10422540
      3477.92      0.85300405      0.10400376
      3481.40      0.78570500      0.10275457
      3484.88      0.76137245      0.10250617
      3488.37      0.77128687      0.10226762
      3491.86      0.73856743      0.10311317
      3495.35      0.71881533      0.10288895
      3498.84      0.68244342      0.10167195
      3502.34      0.67610914      0.10142459
      3505.84      0.69221824      0.10118638
      3509.35      0.68228148      0.10095236
      3512.86      0.64781951      0.10072676
      3516.37      0.60204580      0.10061460
      3519.89      0.60054591      0.10036747
      3523.41      0.64279895      0.10012418
      3526.93      0.66760735     0.099888886
      3530.46      0.73066852     0.099661253
      3533.99      0.75941998     0.099441039
      3537.53      0.77242985     0.098241577
      3541.06      0.78157940     0.099090410
      3544.60      0.77027811     0.098852905
      3548.15      0.80313652     0.098622558
      3551.70      0.78754801     0.098394885
      3555.25      0.76632587     0.097201874
      3558.80      0.78162488     0.096988820
      3562.36      0.74405963     0.096779827
      3565.92      0.70591585     0.096574992
      3569.49      0.67603275     0.096375514
      3573.06      0.64512023     0.097156924
      3576.64      0.64817264     0.096933832
      3580.21      0.66886834     0.095759742
      3583.79      0.66309275     0.095549674
      3587.38      0.64867750     0.095344586
      3590.96      0.64096284     0.095140981
      3594.55      0.65765220     0.094942323
      3598.15      0.65066099     0.094748235
      3601.75      0.66974514     0.093614933
      3605.35      0.67850689     0.094351018
      3608.96      0.69500285     0.094141316
      3612.56      0.70523205     0.093936745
      3616.18      0.78465266     0.093734663
      3619.79      0.80461643     0.093535066
      3623.41      0.84464469     0.093339591
      3627.04      0.80494427     0.092258484
      3630.66      0.84613278     0.092049517
      3634.29      0.83716892     0.091842786
      3637.93      0.82610171     0.091639668
      3641.57      0.77403061     0.091440025
      3645.21      0.71359200     0.091240183
      3648.86      0.68961065     0.091966409
      3652.50      0.69189201     0.091771660
      3656.16      0.71281468     0.090742994
      3659.81      0.68349227     0.090535710
      3663.47      0.71900370     0.090331510
      3667.14      0.68119546     0.090130881
      3670.80      0.63298730     0.089932070
      3674.48      0.59007449     0.089734786
      3678.15      0.53277727     0.089540346
      3681.83      0.49950689     0.089346997
      3685.51      0.50659982     0.089155250
      3689.20      0.53085342     0.088120903
      3692.88      0.57747419     0.087935189
      3696.58      0.66004676     0.087750815
      3700.27      0.74754101     0.087567435
      3703.98      0.81776255     0.087386049
      3707.68      0.88905910     0.087205036
      3711.39      0.94127401     0.087026777
      3715.10      0.96314640     0.086848759
      3718.81      0.99687109     0.087532031
      3722.53       1.0510893     0.087345275
      3726.26       1.0983991     0.087157190
      3729.98       1.0620575     0.086143974
      3733.71       1.0426397     0.085961671
      3737.45      0.99577294     0.085781191
      3741.18      0.97311021     0.085601465
      3744.93      0.95701473     0.085422540
      3748.67      0.91151326     0.085243987
      3752.42      0.80665825     0.085068042
      3756.17      0.68508502     0.084892004
      3759.93      0.54797202     0.084717942
      3763.69      0.42042442     0.084545554
      3767.45      0.31225839     0.084371845
      3771.22      0.22090369     0.084199715
      3774.99      0.14271744     0.084029088
      3778.77     0.076790826     0.083858521
      3782.54     0.044498745     0.083688187
      3786.33     0.034519531     0.083519096
      3790.11     0.013161441     0.082605285
      3793.90     0.040004009     0.082435525
      3797.70     0.028488998     0.082265875
      3801.50     0.071331794     0.082098000
      3805.30     0.073299945     0.081930110
      3809.10     0.065053059     0.081762833
      3812.91     0.061575537     0.081596981
      3816.73     0.087491572     0.081432488
      3820.54      0.11244195     0.081268290
      3824.36     0.085515039     0.081106071
      3828.19     0.087609558     0.080943834
      3832.02     0.080407641     0.080781712
      3835.85     0.098000276     0.080621606
      3839.68      0.10584695     0.080461988
      3843.52      0.10666701     0.080303755
      3847.37      0.12112545     0.080145843
      3851.22      0.13172047     0.079215691
      3855.07      0.13357780     0.079059444
      3858.92      0.20601848     0.078903040
      3862.78      0.20289844     0.078748150
      3866.64      0.21291633     0.078593345
      3870.51      0.25231503     0.078438141
      3874.38      0.28096213     0.078284501
      3878.26      0.28904815     0.078132541
      3882.13      0.31839171     0.077980256
      3886.02      0.37956128     0.077828048
      3889.90      0.41781377     0.077677458
      3893.79      0.49848827     0.077526882
      3897.69      0.57053918     0.077376362
      3901.59      0.62249197     0.077227483
      3905.49      0.66261173     0.077080331
      3909.39      0.72569491     0.076933215
      3913.30      0.80139191     0.076786314
      3917.22      0.88530519     0.076641237
      3921.13      0.93024525     0.075787466
      3925.06      0.97598856     0.075644585
      3928.98       1.0582185     0.075503522
      3932.91       1.1306582     0.075364226
      3936.84       1.1748655     0.075223958
      3940.78       1.2733853     0.075085628
      3944.72       1.3214179     0.074949209
      3948.67       1.3736780     0.074813348
      3952.61       1.3871884     0.074678073
      3956.57       1.4329808     0.074544885
      3960.52       1.4592278     0.074413809
      3964.48       1.4356456     0.074282096
      3968.45       1.4253737     0.073439735
      3972.42       1.4140173     0.073304833
      3976.39       1.3495028     0.073169392
      3980.37       1.2999519     0.073035943
      3984.35       1.2894581     0.072904593
      3988.33       1.2502373     0.073425390
      3992.32       1.2560374     0.073294757
      3996.31       1.2355918     0.073166490
      4000.31       1.2305659     0.073040642
      4004.31       1.2246198     0.072249671
      4008.31       1.2233652     0.072116249
      4012.32       1.2195154     0.071985071
      4016.33       1.2251070     0.071853932
      4020.35       1.2126828     0.071725101
      4024.37       1.1767948     0.071598703
      4028.40       1.1739725     0.071474563
      4032.42       1.1922955     0.071350847
      4036.46       1.1552338     0.070594505
      4040.50       1.1380458     0.070477327
      4044.54       1.1646689     0.070360771
      4048.58       1.1411480     0.070850274
      4052.63       1.1212172     0.070724898
      4056.68       1.1006462     0.070600037
      4060.74       1.0950374     0.070478159
      4064.80       1.0657294     0.069732792
      4068.86       1.0166109     0.069617123
      4072.93      0.98062820     0.069503323
      4077.01      0.93377714     0.069392566
      4081.08      0.89230167     0.069284869
      4085.17      0.88641876     0.069178430
      4089.25      0.86862934     0.069642664
      4093.34      0.86442294     0.068908103
      4097.43      0.84870597     0.068794784
      4101.53      0.86317501     0.068684825
      4105.63      0.89242477     0.068578290
      4109.74      0.89991036     0.068474149
      4113.85      0.91657626     0.068372687
      4117.96      0.95462483     0.067640462
      4122.08      0.94515984     0.067530088
      4126.20      0.94565484     0.068006893
      4130.33      0.98066219     0.067902219
      4134.46      0.97289224     0.067801397
      4138.59      0.95826751     0.067098392
      4142.73      0.97260845     0.066987428
      4146.88       1.0117680     0.066880292
      4151.02       1.0709215     0.066776385
      4155.18       1.0804119     0.066675581
      4159.33       1.0859711     0.066576480
      4163.49       1.1261206     0.066465377
      4167.65       1.1488011     0.066357582
      4171.82       1.1863433     0.066254073
      4175.99       1.1807898     0.066153647
      4180.17       1.2273323     0.065491460
      4184.35       1.2578441     0.065959212
      4188.54       1.2844461     0.065852079
      4192.72       1.2905926     0.065748888
      4196.92       1.3007697     0.065650357
      4201.11       1.3283187     0.064995008
      4205.31       1.3743502     0.064906539
      4209.52       1.4142378     0.064822036
      4213.73       1.4345705     0.065261349
      4217.94       1.4317580     0.064607681
      4222.16       1.4276367     0.064517275
      4226.38       1.3736040     0.064431952
      4230.61       1.3050316     0.064350986
      4234.84       1.3150391     0.064788993
      4239.08       1.2794828     0.064143709
      4243.32       1.2300573     0.064057332
      4247.56       1.2167250     0.063975683
      4251.81       1.1830350     0.063899625
      4256.06       1.1731392     0.063250727
      4260.32       1.1452030     0.063696400
      4264.58       1.1330999     0.063615181
      4268.84       1.0930437     0.063539033
      4273.11       1.1082784     0.062905036
      4277.38       1.1203324     0.062819481
      4281.66       1.1321452     0.063267262
      4285.94       1.1322789     0.063192869
      4290.23       1.1437054     0.062569544
      4294.52       1.1550900     0.062484523
      4298.81       1.1382130     0.062406127
      4303.11       1.1340665     0.062333164
      4307.42       1.1594696     0.062243623
      4311.72       1.1604944     0.062160983
      4316.04       1.1576708     0.062084382
      4320.35       1.1586878     0.062014700
      4324.67       1.1693890     0.061928003
      4329.00       1.1781364     0.061847620
      4333.33       1.1721247     0.061265315
      4337.66       1.1495095     0.061199178
      4342.00       1.1782635     0.061621815
      4346.34       1.2003372     0.061545154
      4350.69       1.1794088     0.060969542
      4355.04       1.1562301     0.060908096
      4359.39       1.1513402     0.061325978
      4363.75       1.1575750     0.060749894
      4368.12       1.1464513     0.060686190
      4372.48       1.1301679     0.060629374
      4376.86       1.0827650     0.060539700
      4381.23       1.0823263     0.060473794
      4385.61       1.0692139     0.060415103
      4390.00       1.0492843     0.059846232
      4394.39       1.0136503     0.060269022
      4398.79      0.97393267     0.060209184
      4403.18      0.95496860     0.059651675
      4407.59      0.95330819     0.059583816
      4412.00      0.93024133     0.060011663
      4416.41      0.95661833     0.059959693
      4420.82      0.94372696     0.059395613
      4425.25      0.92073030     0.059821813
      4429.67      0.93991947     0.059282069
      4434.10      0.97045614     0.059213186
      4438.54      0.99394621     0.059152622
      4442.97       1.0125085     0.059106331
      4447.42       1.0191044     0.059037405
      4451.86       1.0129925     0.058977188
      4456.32       1.0321341     0.058934879
      4460.77       1.0527554     0.058866727
      4465.24       1.1046593     0.058807583
      4469.70       1.1145405     0.058292982
      4474.17       1.1397011     0.058702005
      4478.65       1.1388190     0.058644192
      4483.12       1.1384022     0.058132539
      4487.61       1.1382323     0.058541845
      4492.09       1.1479851     0.058025396
      4496.59       1.1858641     0.057980216
      4501.08       1.2097110     0.058388980
      4505.58       1.2658542     0.057876095
      4510.09       1.2888288     0.057833793
      4514.60       1.3326937     0.058240555
      4519.12       1.3820760     0.057731811
      4523.63       1.4060662     0.057693289
      4528.16       1.4497941     0.057639778
      4532.69       1.4481110     0.057595748
      4537.22       1.4457344     0.057561510
      4541.76       1.5029276     0.057506034
      4546.30       1.5260550     0.057465876
      4550.85       1.5464376     0.056967711
      4555.40       1.5553061     0.057377707
      4559.95       1.5488782     0.057343482
      4564.51       1.5491273     0.056842426
      4569.08       1.5866331     0.057257484
      4573.65       1.5894825     0.056769536
      4578.22       1.5971527     0.056723399
      4582.80       1.6077703     0.056702519
      4587.38       1.6112629     0.056652220
      4591.97       1.6016222     0.056612954
      4596.56       1.6077357     0.056586244
      4601.16       1.6550267     0.056542247
      4605.76       1.6857904     0.056525320
      4610.37       1.6745865     0.056476732
      4614.98       1.6518948     0.056011729
      4619.59       1.6157139     0.056417011
      4624.21       1.5929013     0.056376688
      4628.84       1.5508636     0.055921471
      4633.47       1.5403750     0.056317877
      4638.10       1.5102618     0.055859806
      4642.74       1.4824484     0.056264071
      4647.38       1.4465317     0.055801663
      4652.03       1.4034391     0.055780486
      4656.68       1.4040002     0.055748760
      4661.34       1.3835103     0.055724097
      4666.00       1.3862240     0.055699726
      4670.67       1.3542635     0.055672361
      4675.33       1.3504607     0.055658639
      4680.01       1.3566599     0.055624372
      4684.69       1.3641702     0.055608456
      4689.38       1.3623680     0.055579961
      4694.07       1.3390832     0.055561972
      4698.76       1.3562225     0.055108595
      4703.46       1.3790394     0.055519048
      4708.16       1.3735574     0.055070926
      4712.87       1.3898296     0.055479990
      4717.58       1.3790782     0.055036865
      4722.30       1.3786828     0.055444568
      4727.03       1.3385930     0.055005330
      4731.75       1.3215093     0.054981033
      4736.48       1.3108051     0.054976842
      4741.22       1.3161825     0.054951313
      4745.96       1.3576734     0.054950657
      4750.71       1.3498286     0.054924725
      4755.46       1.3458129     0.054926822
      4760.22       1.3364378     0.054900645
      4764.97       1.3034029     0.054905585
      4769.74       1.3062531     0.054879036
      4774.51       1.3064835     0.054468656
      4779.29       1.3405331     0.054860421
      4784.07       1.3376026     0.054451159
      4788.85       1.2983042     0.054443911
      4793.64       1.2917068     0.054436184
      4798.43       1.2547848     0.054430602
      4803.23       1.2274525     0.054423611
      4808.03       1.2017110     0.054419566
      4812.84       1.1686827     0.054414311
      4817.66       1.1657597     0.054411220
      4822.48       1.1924823     0.054407594
      4827.30       1.2035248     0.054405168
      4832.12       1.2152587     0.054403951
      4836.96       1.2533582     0.054402108
