# starting wavelength =        3729.4600
# ending wavelength =        9063.5800
# O2 telluric scale =        0
# O2 telluric shift =        0
# H2O telluric scale =        0
# H2O telluric shift =        0
      3729.98      0.77102340     0.041681896
      3733.71      0.78684939     0.035283905
      3737.45      0.79942437     0.030940679
      3741.18      0.81160490     0.026805071
      3744.93      0.82412220     0.023515314
      3748.67      0.83994842     0.020496046
      3752.42      0.86178881     0.018584703
      3756.17      0.88966716     0.017106944
      3759.93      0.92020950     0.016171929
      3763.69      0.95572711     0.015228935
      3767.45       1.0073525     0.014362960
      3771.22       1.0646329     0.013811467
      3774.99       1.1206231     0.013374671
      3778.77       1.1780524     0.013023925
      3782.54       1.2320449     0.012717621
      3786.33       1.2908140     0.012388785
      3790.11       1.3491998     0.012182138
      3793.90       1.4093594     0.012007371
      3797.70       1.4684764     0.011796431
      3801.50       1.5218338     0.011720458
      3805.30       1.5832119     0.011701492
      3809.10       1.6560042     0.011747837
      3812.91       1.7271675     0.011670025
      3816.73       1.8009446     0.011715874
      3820.54       1.8784556     0.011763160
      3824.36       1.9398380     0.011683918
      3828.19       2.0068586     0.011731529
      3832.02       2.0704744     0.011712698
      3835.85       2.1359805     0.011760602
      3839.68       2.2053580     0.011745940
      3843.52       2.2756632     0.011727984
      3847.37       2.3424344     0.011776478
      3851.22       2.4092431     0.011695591
      3855.07       2.4797248     0.011744616
      3858.92       2.5482468     0.011725583
      3862.78       2.6057158     0.011774697
      3866.64       2.6743582     0.011693459
      3870.51       2.7374489     0.011741704
      3874.38       2.8059780     0.011792067
      3878.26       2.8735442     0.011709102
      3882.13       2.9467573     0.011760099
      3886.02       3.0171743     0.011740589
      3889.90       3.0856533     0.011790382
      3893.79       3.1541496     0.011708388
      3897.69       3.2222981     0.011757468
      3901.59       3.2914276     0.011739549
      3905.49       3.3535389     0.011790390
      3909.39       3.4017075     0.011771686
      3913.30       3.4458128     0.011758019
      3917.22       3.4930537     0.011738620
      3921.13       3.5347830     0.011790011
      3925.06       3.5678172     0.011772859
      3928.98       3.5935679     0.011756329
      3932.91       3.6153884     0.011810588
      3936.84       3.6365891     0.011790512
      3940.78       3.6437166     0.011843074
      3944.72       3.6355675     0.011825258
      3948.67       3.6302924     0.011809487
      3952.61       3.6053168     0.011790693
      3956.57       3.5915467     0.011845860
      3960.52       3.5671048     0.011826045
      3964.48       3.5449661     0.011880720
      3968.45       3.5178629     0.011792916
      3972.42       3.4807243     0.011846413
      3976.39       3.4353457     0.011827788
      3980.37       3.3918061     0.011884292
      3984.35       3.3509819     0.011864396
      3988.33       3.3050296     0.011851818
      3992.32       3.2587598     0.011830897
      3996.31       3.2036228     0.011886256
      4000.31       3.1452940     0.011867295
      4004.31       3.0871823     0.011925926
      4008.31       3.0196381     0.011905728
      4012.32       2.9569263     0.011886477
      4016.33       2.8945301     0.011872033
      4020.35       2.8247733     0.011851666
      4024.37       2.7635277     0.011909290
      4028.40       2.7076399     0.011890803
      4032.42       2.6537047     0.011950091
      4036.46       2.6047426     0.011930124
      4040.50       2.5537079     0.011990835
      4044.54       2.5142848     0.011895732
      4048.58       2.4722686     0.011954784
      4052.63       2.4354259     0.011935404
      4056.68       2.3965791     0.011998770
      4060.74       2.3635906     0.011977822
      4064.80       2.3298496     0.011957857
      4068.86       2.3012628     0.012020459
      4072.93       2.2712118     0.012002175
      4077.01       2.2470290     0.012064653
      4081.08       2.2223865     0.011964181
      4085.17       2.2003937     0.012030573
      4089.25       2.1815025     0.012008951
      4093.34       2.1751688     0.012072620
      4097.43       2.1636690     0.012052725
      4101.53       2.1563032     0.012033516
      4105.63       2.1440624     0.012099709
      4109.74       2.1345517     0.012079008
      4113.85       2.1257323     0.012145988
      4117.96       2.1204273     0.012126602
      4122.08       2.1157368     0.012195765
      4126.20       2.1144993     0.012174632
      4130.33       2.1107226     0.012154352
      4134.46       2.1132091     0.012139813
      4138.59       2.1102178     0.012117789
      4142.73       2.1095249     0.012186285
      4146.88       2.1135834     0.012165407
      4151.02       2.1066004     0.012145456
      4155.18       2.0957928     0.012218947
      4159.33       2.0910860     0.012197073
      4163.49       2.0821236     0.012268581
      4167.65       2.0736626     0.012247766
      4171.82       2.0679705     0.012227641
      4175.99       2.0628541     0.012303674
      4180.17       2.0653596     0.012281423
      4184.35       2.0634104     0.012356088
      4188.54       2.0639116     0.012335208
      4192.72       2.0595778     0.012314866
      4196.92       2.0574421     0.012394264
      4201.11       2.0647640     0.012371938
      4205.31       2.0673956     0.012350107
      4209.52       2.0755370     0.012428634
      4213.73       2.0832374     0.012407866
      4217.94       2.0831269     0.012492172
      4222.16       2.0750715     0.012469304
      4226.38       2.0794155     0.012447099
      4230.61       2.0788600     0.012528514
      4234.84       2.0820794     0.012506985
      4239.08       2.0822099     0.012485962
      4243.32       2.0769664     0.012573899
      4247.56       2.0905407     0.012550645
      4251.81       2.0988905     0.012527982
      4256.06       2.1061247     0.012613136
      4260.32       2.1094242     0.012701223
      4264.58       2.1022278     0.012569483
      4268.84       2.0976783     0.012548195
      4273.11       2.0791607     0.012639669
      4277.38       2.0560001     0.012616256
      4281.66       2.0413950     0.012593094
      4285.94       2.0245534     0.012570437
      4290.23       2.0007896     0.012439393
      4294.52       1.9698512     0.012417699
      4298.81       1.9379585     0.012396139
      4303.11       1.8880401     0.012374942
      4307.42       1.8426456     0.012353882
      4311.72       1.8005594     0.012333188
      4316.04       1.7604716     0.012418178
      4320.35       1.7169445     0.012288363
      4324.67       1.6746394     0.012266136
      4329.00       1.6482271     0.012243962
      4333.33       1.6182313     0.012222299
      4337.66       1.5974267     0.012200650
      4342.00       1.5742118     0.012179046
      4346.34       1.5541617     0.012157652
      4350.69       1.5341476     0.012136498
      4355.04       1.5104010     0.012012713
      4359.39       1.4954562     0.011990262
      4363.75       1.4925393     0.011968067
      4368.12       1.4888376     0.011945921
      4372.48       1.4916584     0.011924034
      4376.86       1.5013271     0.011902156
      4381.23       1.5179009     0.011880483
      4385.61       1.5260318     0.011858741
      4390.00       1.5435529     0.011939124
      4394.39       1.5721087     0.011917398
      4398.79       1.6085699     0.011800813
      4403.18       1.6438796     0.011778379
      4407.59       1.6937441     0.011756097
      4412.00       1.7523160     0.011733814
      4416.41       1.8022912     0.011711448
      4420.82       1.8585239     0.011689439
      4425.25       1.9047789     0.011667359
      4429.67       1.9412277     0.011645222
      4434.10       1.9688598     0.011623271
      4438.54       2.0071385     0.011601463
      4442.97       2.0503483     0.011579573
      4447.42       2.0831179     0.011557600
      4451.86       2.1191149     0.011535782
      4456.32       2.1514354     0.011514112
      4460.77       2.1845700     0.011492335
      4465.24       2.2149297     0.011470470
      4469.70       2.2408659     0.011448744
      4474.17       2.2721413     0.011331932
      4478.65       2.3014759     0.011310249
      4483.12       2.3208647     0.011195296
      4487.61       2.3451903     0.011173999
      4492.09       2.3699432     0.011153004
      4496.59       2.3962180     0.011131651
      4501.08       2.4182333     0.011110364
      4505.58       2.4360253     0.011089165
      4510.09       2.4442063     0.011068072
      4514.60       2.4480486     0.011046699
      4519.12       2.4546161     0.011025459
      4523.63       2.4704767     0.011004373
      4528.16       2.4760127     0.010983433
      4532.69       2.4752154     0.010962260
      4537.22       2.4755558     0.010941273
      4541.76       2.4688945     0.010920441
      4546.30       2.4620684     0.010899787
      4550.85       2.4544730     0.010878914
      4555.40       2.4416936     0.010858258
      4559.95       2.4312346     0.010744305
      4564.51       2.4129645     0.010723219
      4569.08       2.3907126     0.010702075
      4573.65       2.3731544     0.010680871
      4578.22       2.3607071     0.010746159
      4582.80       2.3481633     0.010725102
      4587.38       2.3287593     0.010704056
      4591.97       2.3037632     0.010682998
      4596.56       2.2855891     0.010662127
      4601.16       2.2632588     0.010641463
      4605.76       2.2363707     0.010620842
      4610.37       2.2104732     0.010512212
      4614.98       2.1830302     0.010490676
      4619.59       2.1580030     0.010469343
      4624.21       2.1293560     0.010448049
      4628.84       2.1016749     0.010426984
      4633.47       2.0791377     0.010405973
      4638.10       2.0557402     0.010385247
      4642.74       2.0365343     0.010281164
      4647.38       2.0204560     0.010261070
      4652.03       1.9996406     0.010241009
      4656.68       1.9749717     0.010300714
      4661.34       1.9469697     0.010279285
      4666.00       1.9112985     0.010257788
      4670.67       1.8620799     0.010236676
      4675.33       1.7933377     0.010133718
      4680.01       1.7247453     0.010113351
      4684.69       1.6524876     0.010093186
      4689.38       1.5758998     0.010073400
      4694.07       1.5030933     0.010053847
      4698.76       1.4365038     0.010034655
      4703.46       1.3735138     0.010007742
      4708.16       1.3276267    0.0099871575
      4712.87       1.2881547    0.0099670008
      4717.58       1.2620141    0.0099470930
      4722.30       1.2454198    0.0099276135
      4727.03       1.2426686    0.0098262739
      4731.75       1.2455197    0.0098054780
      4736.48       1.2616886    0.0097851089
      4741.22       1.2786422    0.0098414791
      4745.96       1.2848657    0.0098216810
      4750.71       1.2872485    0.0097228408
      4755.46       1.2774654    0.0097019038
      4760.22       1.2523181    0.0096813269
      4764.97       1.2122813    0.0096611101
      4769.74       1.1647748    0.0097168266
      4774.51       1.1182952    0.0096194340
      4779.29       1.0781099    0.0095983313
      4784.07       1.0428157    0.0095778203
      4788.85       1.0083791    0.0095576502
      4793.64      0.98997813    0.0094634661
      4798.43      0.97958755    0.0095159423
      4803.23      0.97605239    0.0094951000
      4808.03      0.98728921    0.0094746872
      4812.84       1.0164873    0.0093807648
      4817.66       1.0451852    0.0093616271
      4822.48       1.0883141    0.0094123924
      4827.30       1.1343975    0.0093918881
      4832.12       1.1788492    0.0092986552
      4836.96       1.2213919    0.0092793957
      4841.79       1.2659711    0.0092608937
      4846.63       1.3066875    0.0092364402
      4851.48       1.3363437    0.0092165921
      4856.33       1.3628226    0.0091975562
      4861.19       1.3891751    0.0091790821
      4866.05       1.4151423    0.0090860161
      4870.92       1.4317467    0.0091349476
      4875.79       1.4455862    0.0091160566
      4880.66       1.4533900    0.0090254110
      4885.55       1.4573336    0.0090053123
      4890.43       1.4523772    0.0090538691
      4895.32       1.4398996    0.0090352507
      4900.22       1.4192471    0.0089446217
      4905.12       1.3922240    0.0089249530
      4910.02       1.3491809    0.0089734985
      4914.94       1.3045945    0.0088843169
      4919.85       1.2600102    0.0088640662
      4924.77       1.2184426    0.0088449175
      4929.70       1.1775221    0.0088240496
      4934.62       1.1516340    0.0088035649
      4939.56       1.1345660    0.0087841980
      4944.50       1.1313617    0.0086990846
      4949.44       1.1370281    0.0087432909
      4954.39       1.1544977    0.0087237203
      4959.35       1.1733752    0.0086388817
      4964.31       1.2042414    0.0086830829
      4969.27       1.2352288    0.0086634662
      4974.24       1.2702777    0.0085791360
      4979.22       1.3078586    0.0086230297
      4984.20       1.3430866    0.0085379642
      4989.18       1.3726960    0.0085195768
      4994.17       1.3932636    0.0085026136
      4999.16       1.4079995    0.0084785347
      5004.16       1.4185064    0.0084604388
      5009.17       1.4266007    0.0083770679
      5014.18       1.4310624    0.0084192805
      5019.19       1.4327677    0.0084014911
      5024.21       1.4369094    0.0083182076
      5029.23       1.4421193    0.0083603869
      5034.26       1.4524475    0.0083430324
      5039.30       1.4678016    0.0082597104
      5044.34       1.4787943    0.0083018826
      5049.39       1.4911880    0.0082203045
      5054.43       1.5073702    0.0082014415
      5059.49       1.5205946    0.0081815876
      5064.55       1.5359655    0.0081620035
      5069.61       1.5562751    0.0081438074
      5074.68       1.5876601    0.0081229467
      5079.76       1.6171400    0.0081039074
      5084.84       1.6468173    0.0080843171
      5089.92       1.6769282    0.0080646619
      5095.01       1.7051516    0.0079870086
      5100.11       1.7379124    0.0080259156
      5105.21       1.7702715    0.0080072279
      5110.31       1.8005326    0.0079308400
      5115.42       1.8291332    0.0079679278
      5120.54       1.8582138    0.0078914508
      5125.66       1.8860244    0.0079291128
      5130.79       1.9072909    0.0078524306
      5135.92       1.9276385    0.0078362794
      5141.05       1.9413562    0.0078136536
      5146.20       1.9548900    0.0077971216
      5151.34       1.9662969    0.0077750754
      5156.49       1.9702728    0.0077582450
      5161.65       1.9754319    0.0077366905
      5166.81       1.9804149    0.0077196352
      5171.98       1.9943736    0.0076444942
      5177.15       2.0019944    0.0076811379
      5182.33       2.0066446    0.0076066422
      5187.51       2.0127975    0.0076428380
      5192.70       2.0208146    0.0075689425
      5197.89       2.0307445    0.0076047552
      5203.09       2.0372565    0.0075313972
      5208.29       2.0417068    0.0075137240
      5213.50       2.0466177    0.0074939496
      5218.72       2.0459933    0.0074761942
      5223.93       2.0495025    0.0074565521
      5229.16       2.0486435    0.0074388891
      5234.39       2.0493549    0.0074192597
      5239.62       2.0466283    0.0074016979
      5244.86       2.0407442    0.0073820240
      5250.11       2.0334589    0.0073113811
      5255.36       2.0261580    0.0073449319
      5260.61       2.0182291    0.0072747462
      5265.87       2.0045496    0.0073078392
      5271.14       1.9928024    0.0072381773
      5276.41       1.9763541    0.0072709459
      5281.69       1.9528013    0.0072017981
      5286.97       1.9365245    0.0072341419
      5292.26       1.9160637    0.0071656732
      5297.55       1.8961551    0.0071454649
      5302.85       1.8786076    0.0071298237
      5308.15       1.8536249    0.0071093786
      5313.46       1.8359937    0.0070941960
      5318.77       1.8133257    0.0070734442
      5324.09       1.7929097    0.0070061529
      5329.42       1.7693206    0.0070377727
      5334.75       1.7467808    0.0069703822
      5340.08       1.7224386    0.0070025057
      5345.42       1.6966381    0.0069349363
      5350.77       1.6737767    0.0069163484
      5356.12       1.6574145    0.0069470035
      5361.48       1.6407480    0.0068806765
      5366.83       1.6216771    0.0068628911
      5372.20       1.6039760    0.0068453672
      5377.58       1.5853349    0.0068270801
      5382.95       1.5720106    0.0068105287
      5388.34       1.5598601    0.0067917632
      5393.72       1.5521204    0.0067284504
      5399.12       1.5472167    0.0067569550
      5404.52       1.5408349    0.0067387545
      5409.92       1.5267027    0.0066750408
      5415.33       1.5227868    0.0067038551
      5420.75       1.5115056    0.0066416720
      5426.17       1.4978628    0.0066224035
      5431.60       1.4876420    0.0066510403
      5437.03       1.4741143    0.0065889081
      5442.47       1.4567015    0.0065700346
      5447.91       1.4435628    0.0065561759
      5453.36       1.4305760    0.0065367205
      5458.81       1.4223914    0.0065181170
      5464.27       1.4099853    0.0065041537
      5469.73       1.3993207    0.0064849368
      5475.20       1.3860879    0.0064665117
      5480.68       1.3774127    0.0064062369
      5486.16       1.3693857    0.0064336098
      5491.65       1.3565664    0.0063728449
      5497.14       1.3471856    0.0063552915
      5502.64       1.3376231    0.0063826724
      5508.14       1.3256340    0.0063223177
      5513.65       1.3134207    0.0063048116
      5519.16       1.3053914    0.0062879285
      5524.68       1.2975341    0.0062721319
      5530.20       1.2874698    0.0062546099
      5535.73       1.2778053    0.0062376549
      5541.27       1.2687919    0.0061796978
      5546.81       1.2600586    0.0062048370
      5552.36       1.2571346    0.0061877802
      5557.91       1.2512712    0.0061309262
      5563.47       1.2498495    0.0061133399
      5569.04       1.2459440    0.0061384149
      5574.60       1.2402699    0.0060827698
      5580.18       1.2393636    0.0060650218
      5585.76       1.2395947    0.0060476954
      5591.35       1.2378521    0.0060726232
      5596.94       1.2362269    0.0060174200
      5602.53       1.2344440    0.0059999035
      5608.14       1.2347447    0.0059828276
      5613.75       1.2353423    0.0059278354
      5619.36       1.2327646    0.0059529276
      5624.98       1.2280085    0.0059356478
      5630.60       1.2237306    0.0059187242
      5636.23       1.2160672    0.0058642539
      5641.87       1.2060810    0.0058481399
      5647.51       1.2006190    0.0058722253
      5653.16       1.1917132    0.0058553744
      5658.82       1.1884735    0.0058013473
      5664.47       1.1825307    0.0057852348
      5670.14       1.1789169    0.0057693375
      5675.81       1.1743849    0.0057537446
      5681.48       1.1678467    0.0057393217
      5687.17       1.1652124    0.0057231745
      5692.85       1.1578262    0.0057072718
      5698.55       1.1482227    0.0056915883
      5704.25       1.1341036    0.0056403813
      5709.95       1.1225879    0.0056245873
      5715.66       1.1114716    0.0056094355
      5721.38       1.1012533    0.0056321533
      5727.10       1.0909962    0.0056172191
