# starting wavelength =        3729.4600
# ending wavelength =        8958.0624
# O2 telluric scale =        0
# O2 telluric shift =        0
# H2O telluric scale =        0
# H2O telluric shift =        0
      3729.98       1.1122266     0.037467926
      3733.71       1.1022500     0.031722238
      3737.45       1.0929377     0.027826748
      3741.18       1.0948850     0.024111649
      3744.93       1.1002519     0.021156165
      3748.67       1.1133559     0.018443175
      3752.42       1.1317296     0.016726234
      3756.17       1.1539886     0.015399013
      3759.93       1.1780527     0.014562032
      3763.69       1.2010294     0.013715239
      3767.45       1.2232366     0.012938182
      3771.22       1.2461888     0.012443631
      3774.99       1.2674160     0.012052258
      3778.77       1.2964099     0.011739491
      3782.54       1.3223926     0.011465374
      3786.33       1.3455542     0.011171768
      3790.11       1.3679225     0.010987369
      3793.90       1.3926004     0.010831657
      3797.70       1.4105428     0.010644175
      3801.50       1.4307277     0.010578385
      3805.30       1.4599913     0.010566760
      3809.10       1.4816826     0.010613196
      3812.91       1.4950198     0.010547475
      3816.73       1.5119928     0.010593484
      3820.54       1.5245837     0.010640828
      3824.36       1.5373491     0.010573731
      3828.19       1.5558868     0.010621390
      3832.02       1.5671477     0.010609839
      3835.85       1.5715795     0.010657806
      3839.68       1.5849312     0.010648205
      3843.52       1.6006341     0.010637423
      3847.37       1.6264894     0.010686000
      3851.22       1.6580991     0.010617179
      3855.07       1.6892160     0.010666260
      3858.92       1.7168740     0.010654469
      3862.78       1.7601190     0.010703623
      3866.64       1.8191937     0.010634414
      3870.51       1.8698648     0.010682863
      3874.38       1.9303901     0.010733274
      3878.26       1.9965877     0.010662341
      3882.13       2.0669444     0.010713357
      3886.02       2.1518414     0.010701080
      3889.90       2.2261580     0.010751057
      3893.79       2.3028574     0.010680867
      3897.69       2.3769389     0.010730217
      3901.59       2.4556680     0.010719358
      3905.49       2.5310693     0.010770369
      3909.39       2.6078183     0.010758791
      3913.30       2.6750363     0.010749967
      3917.22       2.7387696     0.010737723
      3921.13       2.8010606     0.010789319
      3925.06       2.8562392     0.010779129
      3928.98       2.8970930     0.010767658
      3932.91       2.9397052     0.010821948
      3936.84       2.9761074     0.010809064
      3940.78       2.9948822     0.010861857
      3944.72       3.0087447     0.010851046
      3948.67       3.0176550     0.010840255
      3952.61       3.0142317     0.010828513
      3956.57       3.0096512     0.010883782
      3960.52       3.0013830     0.010871104
      3964.48       2.9826846     0.010925981
      3968.45       2.9709882     0.010849834
      3972.42       2.9581983     0.010903658
      3976.39       2.9420697     0.010892038
      3980.37       2.9231954     0.010948689
      3984.35       2.9024805     0.010935902
      3988.33       2.8854877     0.010927997
      3992.32       2.8687800     0.010914234
      3996.31       2.8426806     0.010969920
      4000.31       2.8059964     0.010957963
      4004.31       2.7784066     0.011016731
      4008.31       2.7451024     0.011003632
      4012.32       2.7105704     0.010991395
      4016.33       2.6692597     0.010981728
      4020.35       2.6224324     0.010968421
      4024.37       2.5802837     0.011026376
      4028.40       2.5345133     0.011014808
      4032.42       2.4943735     0.011074369
      4036.46       2.4512910     0.011061430
      4040.50       2.4110688     0.011122374
      4044.54       2.3658521     0.011038794
      4048.58       2.3268621     0.011098232
      4052.63       2.2864730     0.011085810
      4056.68       2.2514134     0.011149323
      4060.74       2.2243945     0.011135445
      4064.80       2.1930985     0.011122461
      4068.86       2.1659201     0.011185357
      4072.93       2.1503276     0.011173944
      4077.01       2.1335976     0.011236789
      4081.08       2.1303498     0.011147871
      4085.17       2.1250484     0.011214400
      4089.25       2.1223514     0.011199846
      4093.34       2.1177142     0.011263909
      4097.43       2.1185682     0.011250969
      4101.53       2.1156602     0.011238687
      4105.63       2.1061329     0.011305166
      4109.74       2.1022984     0.011291454
      4113.85       2.1020560     0.011358782
      4117.96       2.0979189     0.011346306
      4122.08       2.0823660     0.011415747
      4126.20       2.0672591     0.011401645
      4130.33       2.0613231     0.011388321
      4134.46       2.0477208     0.011378466
      4138.59       2.0382630     0.011363478
      4142.73       2.0336036     0.011432437
      4146.88       2.0322762     0.011418523
      4151.02       2.0344391     0.011405459
      4155.18       2.0388342     0.011479214
      4159.33       2.0455897     0.011464337
      4163.49       2.0399847     0.011536317
      4167.65       2.0397436     0.011522458
      4171.82       2.0467583     0.011509227
      4175.99       2.0558646     0.011585561
      4180.17       2.0670214     0.011570336
      4184.35       2.0725258     0.011645471
      4188.54       2.0774095     0.011631548
      4192.72       2.0869192     0.011618111
      4196.92       2.0931133     0.011697817
      4201.11       2.0953351     0.011682515
      4205.31       2.0965402     0.011667664
      4209.52       2.0972368     0.011746672
      4213.73       2.0951696     0.011732828
      4217.94       2.0919567     0.011817407
      4222.16       2.0898515     0.011801576
      4226.38       2.0890464     0.011786365
      4230.61       2.0953830     0.011868319
      4234.84       2.1014835     0.011853755
      4239.08       2.1035674     0.011839652
      4243.32       2.1059403     0.011927913
      4247.56       2.1079526     0.011911707
      4251.81       2.1057842     0.011896041
      4256.06       2.1021668     0.011981797
      4260.32       2.0942888     0.012072378
      4264.58       2.0836431     0.011952052
      4268.84       2.0803810     0.011937666
      4273.11       2.0717509     0.012029592
      4277.38       2.0581856     0.012013193
      4281.66       2.0381401     0.011997013
      4285.94       2.0175633     0.011981295
      4290.23       1.9960803     0.011861236
      4294.52       1.9774045     0.011846344
      4298.81       1.9536361     0.011831562
      4303.11       1.9251870     0.011817103
      4307.42       1.8999742     0.011802759
      4311.72       1.8837057     0.011788743
      4316.04       1.8610909     0.011874803
      4320.35       1.8443114     0.011755450
      4324.67       1.8341692     0.011739905
      4329.00       1.8271034     0.011724407
      4333.33       1.8129745     0.011709370
      4337.66       1.8005741     0.011694321
      4342.00       1.7748396     0.011679301
      4346.34       1.7442527     0.011664462
      4350.69       1.7178524     0.011649836
      4355.04       1.6828510     0.011535690
      4359.39       1.6363311     0.011519730
      4363.75       1.5952983     0.011503998
      4368.12       1.5575986     0.011488288
      4372.48       1.5209453     0.011472807
      4376.86       1.4848584     0.011457317
      4381.23       1.4504143     0.011442006
      4385.61       1.4210634     0.011426605
      4390.00       1.4056802     0.011508700
      4394.39       1.3978416     0.011493327
      4398.79       1.3954692     0.011385491
      4403.18       1.4068383     0.011369350
      4407.59       1.4310313     0.011353339
      4412.00       1.4653736     0.011337304
      4416.41       1.5024906     0.011321163
      4420.82       1.5415100     0.011305354
      4425.25       1.5756395     0.011289457
      4429.67       1.6094205     0.011273481
      4434.10       1.6433387     0.011257668
      4438.54       1.6751517     0.011241981
      4442.97       1.7060957     0.011226165
      4447.42       1.7455157     0.011210277
      4451.86       1.7803791     0.011194511
      4456.32       1.8098820     0.011178866
      4460.77       1.8369039     0.011163102
      4465.24       1.8565567     0.011147233
      4469.70       1.8824633     0.011131474
      4474.17       1.9150770     0.011022325
      4478.65       1.9455610     0.011006530
      4483.12       1.9703103     0.010900787
      4487.61       2.0084273     0.010885278
      4492.09       2.0483516     0.010870048
      4496.59       2.0801416     0.010854449
      4501.08       2.1089342     0.010838896
      4505.58       2.1385521     0.010823411
      4510.09       2.1624875     0.010808007
      4514.60       2.1820963     0.010792312
      4519.12       2.2048008     0.010776727
      4523.63       2.2271095     0.010761272
      4528.16       2.2501575     0.010745944
      4532.69       2.2683467     0.010730367
      4537.22       2.2812644     0.010714952
      4541.76       2.2877895     0.010699671
      4546.30       2.2952921     0.010684543
      4550.85       2.2942994     0.010669184
      4555.40       2.2976596     0.010654017
      4559.95       2.3033290     0.010548097
      4564.51       2.3096765     0.010532429
      4569.08       2.3016137     0.010516679
      4573.65       2.2930923     0.010500854
      4578.22       2.2888331     0.010570918
      4582.80       2.2704215     0.010555240
      4587.38       2.2593613     0.010539548
      4591.97       2.2446303     0.010523832
      4596.56       2.2220916     0.010508276
      4601.16       2.1993899     0.010492909
      4605.76       2.1767312     0.010477564
      4610.37       2.1484497     0.010376170
      4614.98       2.1265601     0.010359841
      4619.59       2.0971745     0.010343690
      4624.21       2.0740046     0.010327558
      4628.84       2.0439333     0.010311639
      4633.47       2.0245297     0.010295753
      4638.10       2.0035101     0.010280132
      4642.74       1.9871162     0.010182748
      4647.38       1.9717301     0.010167670
      4652.03       1.9588930     0.010152607
      4656.68       1.9421990     0.010217443
      4661.34       1.9191942     0.010201023
      4666.00       1.8959849     0.010184516
      4670.67       1.8629861     0.010168371
      4675.33       1.8181386     0.010071672
      4680.01       1.7701778     0.010056191
      4684.69       1.7193935     0.010040891
      4689.38       1.6693057     0.010025947
      4694.07       1.6200840     0.010011223
      4698.76       1.5717282    0.0099968374
      4703.46       1.5367510    0.0099763119
      4708.16       1.5043541    0.0099604962
      4712.87       1.4827942    0.0099450893
      4717.58       1.4615533    0.0099299137
      4722.30       1.4547474    0.0099151476
      4727.03       1.4553023    0.0098193470
      4731.75       1.4508320    0.0098031870
      4736.48       1.4483992    0.0097874340
      4741.22       1.4541118    0.0098492265
      4745.96       1.4459851    0.0098340438
      4750.71       1.4287249    0.0097404404
      4755.46       1.4051018    0.0097240429
      4760.22       1.3676264    0.0097079860
      4764.97       1.3206692    0.0096922721
      4769.74       1.2684104    0.0097535110
      4774.51       1.2133165    0.0096610570
      4779.29       1.1605573    0.0096443946
      4784.07       1.1099599    0.0096283073
      4788.85       1.0682190    0.0096125431
      4793.64       1.0418395    0.0095230413
      4798.43       1.0168582    0.0095810860
      4803.23       1.0065796    0.0095645852
      4808.03       1.0101424    0.0095484994
      4812.84       1.0290291    0.0094590255
      4817.66       1.0536120    0.0094441541
      4822.48       1.0825543    0.0095005501
      4827.30       1.1195495    0.0094842924
      4832.12       1.1618452    0.0093952760
      4836.96       1.1988017    0.0093802072
      4841.79       1.2400013    0.0093658846
      4846.63       1.2798883    0.0093469792
      4851.48       1.3067263    0.0093312557
      4856.33       1.3307857    0.0093163335
      4861.19       1.3492498    0.0093019653
      4866.05       1.3578484    0.0092126781
      4870.92       1.3604707    0.0092673281
      4875.79       1.3573394    0.0092524791
      4880.66       1.3482757    0.0091654714
      4885.55       1.3355007    0.0091493219
      4890.43       1.3202581    0.0092036508
      4895.32       1.3026321    0.0091890024
      4900.22       1.2790248    0.0091017841
      4905.12       1.2516738    0.0090859991
      4910.02       1.2215192    0.0091403715
      4914.94       1.1905265    0.0090544516
      4919.85       1.1680914    0.0090380117
      4924.77       1.1513691    0.0090226805
      4929.70       1.1396645    0.0090069709
      4934.62       1.1396289    0.0089902333
      4939.56       1.1532520    0.0089746191
      4944.50       1.1786729    0.0088924808
      4949.44       1.2099973    0.0089425002
      4954.39       1.2475718    0.0089266216
      4959.35       1.2903187    0.0088445970
      4964.31       1.3351505    0.0088946488
      4969.27       1.3742582    0.0088786631
      4974.24       1.4149360    0.0087969939
      4979.22       1.4526742    0.0088467694
      4984.20       1.4797355    0.0087642292
      4989.18       1.4931505    0.0087493979
      4994.17       1.4984466    0.0087360103
      4999.16       1.4890659    0.0087166362
      5004.16       1.4719852    0.0087020489
      5009.17       1.4487688    0.0086209450
      5014.18       1.4193946    0.0086690401
      5019.19       1.3903086    0.0086546968
      5024.21       1.3614120    0.0085735332
      5029.23       1.3323984    0.0086216294
      5034.26       1.3128810    0.0086076941
      5039.30       1.2979190    0.0085263129
      5044.34       1.2908187    0.0085744387
      5049.39       1.2871044    0.0084947435
      5054.43       1.2879660    0.0084791452
      5059.49       1.3001756    0.0084638005
      5064.55       1.3230641    0.0084474156
      5069.61       1.3492930    0.0084324526
      5074.68       1.3854892    0.0084159961
      5079.76       1.4233982    0.0084001190
      5084.84       1.4651232    0.0083849325
      5089.92       1.5095192    0.0083683726
      5095.01       1.5537238    0.0082922309
      5100.11       1.5942505    0.0083370665
      5105.21       1.6325226    0.0083214556
      5110.31       1.6634375    0.0082464724
      5115.42       1.6963443    0.0082894444
      5120.54       1.7233812    0.0082142615
      5125.66       1.7420900    0.0082578488
      5130.79       1.7569312    0.0081823463
      5135.92       1.7719738    0.0081692364
      5141.05       1.7778798    0.0081505972
      5146.20       1.7804828    0.0081370531
      5151.34       1.7825118    0.0081189681
      5156.49       1.7809933    0.0081050790
      5161.65       1.7750581    0.0080874584
      5166.81       1.7662423    0.0080732946
      5171.98       1.7640549    0.0079989502
      5177.15       1.7655752    0.0080415383
      5182.33       1.7762491    0.0079677667
      5187.51       1.7838268    0.0080099033
      5192.70       1.7938306    0.0079366571
      5197.89       1.7995225    0.0079784127
      5203.09       1.8076686    0.0079056279
      5208.29       1.8187196    0.0078906379
      5213.50       1.8298853    0.0078747467
      5218.72       1.8395563    0.0078594974
      5223.93       1.8520502    0.0078435611
      5229.16       1.8634374    0.0078285107
      5234.39       1.8775638    0.0078125412
      5239.62       1.8874972    0.0077975548
      5244.86       1.8961199    0.0077814925
      5250.11       1.8996186    0.0077110727
      5255.36       1.8962027    0.0077505100
      5260.61       1.8891800    0.0076804735
      5265.87       1.8800673    0.0077194419
      5271.14       1.8753318    0.0076498596
      5276.41       1.8725932    0.0076885000
      5281.69       1.8657245    0.0076193619
      5286.97       1.8525090    0.0076575656
      5292.26       1.8405830    0.0075890501
      5297.55       1.8299915    0.0075721502
      5302.85       1.8130131    0.0075589435
      5308.15       1.7963841    0.0075417446
      5313.46       1.7762048    0.0075289902
      5318.77       1.7572004    0.0075114204
      5324.09       1.7392831    0.0074438283
      5329.42       1.7237271    0.0074812900
      5334.75       1.7052042    0.0074134928
      5340.08       1.6904905    0.0074515015
      5345.42       1.6716040    0.0073834201
      5350.77       1.6567328    0.0073679747
      5356.12       1.6358676    0.0074044424
      5361.48       1.6114809    0.0073375342
      5366.83       1.5904954    0.0073228715
      5372.20       1.5746145    0.0073073912
      5377.58       1.5530866    0.0072921498
      5382.95       1.5348069    0.0072776699
      5388.34       1.5161724    0.0072618708
      5393.72       1.5000571    0.0071978670
      5399.12       1.4889453    0.0072320515
      5404.52       1.4717781    0.0072167851
      5409.92       1.4551957    0.0071524722
      5415.33       1.4366605    0.0071867390
      5420.75       1.4314611    0.0071237104
      5426.17       1.4323158    0.0071071740
      5431.60       1.4316190    0.0071415310
      5437.03       1.4307854    0.0070784145
      5442.47       1.4311660    0.0070622300
      5447.91       1.4279524    0.0070503925
      5453.36       1.4294037    0.0070335348
      5458.81       1.4242241    0.0070175658
      5464.27       1.4190458    0.0070055649
      5469.73       1.4141007    0.0069888901
      5475.20       1.4062296    0.0069730431
      5480.68       1.3905490    0.0069115256
      5486.16       1.3834876    0.0069445348
      5491.65       1.3719829    0.0068824026
      5497.14       1.3626509    0.0068674384
      5502.64       1.3523836    0.0069003631
      5508.14       1.3371790    0.0068385770
      5513.65       1.3177158    0.0068235282
      5519.16       1.3034217    0.0068091303
      5524.68       1.3001074    0.0067949211
      5530.20       1.2883262    0.0067797815
      5535.73       1.2762670    0.0067652367
      5541.27       1.2675749    0.0067056996
      5546.81       1.2564144    0.0067363037
      5552.36       1.2509701    0.0067215757
      5557.91       1.2426231    0.0066631045
      5563.47       1.2351503    0.0066477284
      5569.04       1.2295168    0.0066782708
      5574.60       1.2233523    0.0066209831
      5580.18       1.2211754    0.0066053591
      5585.76       1.2196547    0.0065901692
      5591.35       1.2207701    0.0066205563
      5596.94       1.2170496    0.0065635730
      5602.53       1.2148649    0.0065480932
      5608.14       1.2148358    0.0065330907
      5613.75       1.2099216    0.0064761825
      5619.36       1.2007910    0.0065067363
      5624.98       1.1951522    0.0064914293
      5630.60       1.1939067    0.0064764855
      5636.23       1.1911013    0.0064199734
      5641.87       1.1897253    0.0064058432
      5647.51       1.1877349    0.0064353050
      5653.16       1.1846057    0.0064203434
      5658.82       1.1820081    0.0063641429
      5664.47       1.1731051    0.0063499197
      5670.14       1.1697528    0.0063359006
      5675.81       1.1689893    0.0063222069
      5681.48       1.1665541    0.0063089179
      5687.17       1.1612168    0.0062945626
      5692.85       1.1549036    0.0062804516
      5698.55       1.1431512    0.0062665568
      5704.25       1.1254897    0.0062130929
      5709.95       1.1041455    0.0061990035
      5715.66       1.0811616    0.0061855931
      5721.38       1.0540783    0.0062135238
      5727.10       1.0309748    0.0062003312
