# starting wavelength =        3800.1372
# ending wavelength =        7365.7000
# O2 telluric scale =        0
# O2 telluric shift =        0
# H2O telluric scale =        0
# H2O telluric shift =        0
      3801.50       1.2256118      0.13993893
      3805.30       1.2280627      0.13873180
      3809.10       1.2260424      0.13885833
      3812.91       1.2088213      0.13766599
      3816.73       1.2620139      0.13703099
      3820.54       1.2973867      0.13716004
      3824.36       1.2501337      0.13597713
      3828.19       1.2504010      0.13535144
      3832.02       1.2511024      0.13492991
      3835.85       1.3311888      0.13430481
      3839.68       1.3649497      0.13314829
      3843.52       1.3200171      0.13326889
      3847.37       1.3034160      0.13265204
      3851.22       1.3032123      0.13151033
      3855.07       1.2749875      0.13162671
      3858.92       1.3043752      0.13048475
      3862.78       1.2762346      0.12988962
      3866.64       1.2368100      0.13000013
      3870.51       1.2194868      0.12887607
      3874.38       1.1960208      0.12828724
      3878.26       1.1753127      0.12787055
      3882.13       1.1600106      0.12728140
      3886.02       1.1121685      0.12619752
      3889.90       1.0919273      0.12560744
      3893.79       1.0473149      0.12570483
      3897.69      0.97093508      0.12463228
      3901.59      0.96084310      0.12405063
      3905.49      0.99948394      0.12414515
      3909.39       1.0123709      0.12308466
      3913.30       1.0352390      0.12250907
      3917.22      0.98399698      0.12145758
      3921.13       1.0184216      0.12155603
      3925.06       1.0709544      0.12098520
      3928.98       1.0420674      0.11994542
      3932.91       1.0398358      0.11939352
      3936.84       1.0659932      0.11947922
      3940.78       1.0888303      0.11844954
      3944.72       1.0486742      0.11790211
      3948.67       1.0487927      0.11736136
      3952.61       1.0869325      0.11697119
      3956.57       1.0817734      0.11642735
      3960.52       1.0951518      0.11544017
      3964.48       1.1081191      0.11489687
      3968.45       1.1587938      0.11497014
      3972.42       1.1538439      0.11399914
      3976.39       1.1952180      0.11346051
      3980.37       1.2136706      0.11292716
      3984.35       1.1791671      0.11196393
      3988.33       1.1829237      0.11204133
      3992.32       1.0964401      0.11151287
      3996.31       1.0605614      0.11055867
      4000.31       1.0455202      0.11004288
      4004.31       1.0318450      0.11011599
      4008.31       1.0131367      0.10959685
      4012.32      0.99408666      0.10865908
      4016.33      0.94458860      0.10815124
      4020.35      0.92607064      0.10764933
      4024.37      0.89108154      0.10729278
      4028.40      0.83966854      0.10678816
      4032.42      0.83369071      0.10628828
      4036.46      0.79755546      0.10539074
      4040.50      0.78423966      0.10489138
      4044.54      0.78934078      0.10439739
      4048.58      0.79186764      0.10445481
      4052.63      0.81632861      0.10357456
      4056.68      0.85360473      0.10308270
      4060.74      0.90314884      0.10259546
      4064.80      0.92548950      0.10172567
      4068.86      0.97400773      0.10124860
      4072.93      0.96168812      0.10130320
      4077.01       1.0468314      0.10082289
      4081.08       1.0209941     0.099966602
      4085.17      0.98715897     0.099495993
      4089.25       1.0194315     0.099028984
      4093.34       1.0691060     0.098566481
      4097.43       1.0730867     0.097730787
      4101.53       1.0864431     0.097772986
      4105.63       1.1001612     0.097312117
      4109.74       1.1018586     0.096855040
      4113.85       1.0660716     0.096041343
      4117.96       1.0219821     0.095584377
      4122.08       1.0485738     0.095131973
      4126.20       1.0775929     0.094682987
      4130.33       1.0529818     0.094383734
      4134.46       1.0659444     0.093932698
      4138.59       1.0683430     0.093485914
      4142.73       1.0537888     0.093042061
      4146.88       1.0721549     0.092257591
      4151.02       1.0376936     0.091821344
      4155.18       1.0491867     0.091388947
      4159.33       1.0155969     0.090958947
      4163.49       1.0416536     0.090530774
      4167.65       1.0065823     0.089770278
      4171.82      0.97113755     0.089802366
      4175.99       1.0207553     0.089377530
      4180.17       1.0556811     0.088954409
      4184.35       1.0737355     0.088534994
      4188.54       1.1004903     0.087800420
      4192.72       1.1360081     0.087381993
      4196.92       1.1669006     0.086966547
      4201.11       1.1779364     0.086554531
      4205.31       1.1820867     0.086145044
      4209.52       1.1679390     0.085425833
      4213.73       1.1754111     0.085022113
      4217.94       1.1794528     0.084621643
      4222.16       1.2072854     0.084222890
      4226.38       1.1982261     0.083825825
      4230.61       1.2035403     0.083853578
      4234.84       1.1817304     0.083153952
      4239.08       1.1604961     0.082759535
      4243.32       1.1255087     0.082367562
      4247.56       1.1176417     0.081978684
      4251.81       1.1223209     0.081592354
      4256.06       1.1112402     0.081206636
      4260.32       1.0676425     0.080823810
      4264.58       1.0815263     0.080160852
      4268.84       1.0517310     0.079781024
      4273.11       1.0694966     0.079402717
      4277.38       1.0592275     0.079027207
      4281.66       1.0587901     0.078654448
      4285.94       1.1134465     0.078282060
      4290.23       1.0964273     0.077912437
      4294.52       1.0734282     0.077545466
      4298.81       1.1003631     0.076906033
      4303.11       1.0906047     0.076543230
      4307.42       1.0467008     0.076182923
      4311.72       1.0291310     0.075825191
      4316.04      0.97229236     0.075468438
      4320.35      0.96434252     0.075113447
      4324.67      0.93128443     0.074760952
      4329.00      0.94752646     0.074410457
      4333.33      0.91085812     0.074060754
      4337.66      0.93931314     0.073459938
      4342.00       1.0028204     0.073115236
      4346.34      0.97180322     0.072772140
      4350.69      0.94825942     0.072430370
      4355.04      0.93224550     0.072090897
      4359.39      0.92725847     0.071753870
      4363.75      0.92038914     0.071417476
      4368.12      0.87257430     0.071083175
      4372.48      0.89710319     0.070403157
      4376.86      0.88733077     0.070074390
      4381.23      0.89116545     0.069747203
      4385.61      0.87986557     0.069422216
      4390.00      0.87327798     0.069098662
      4394.39      0.88343097     0.068776889
      4398.79      0.88869039     0.068221707
      4403.18      0.90430739     0.067905041
      4407.59      0.88047458     0.067589582
      4412.00      0.90337074     0.067276042
      4416.41      0.91976145     0.066964395
      4420.82      0.95414592     0.066654595
      4425.25      0.98605644     0.066346435
      4429.67      0.98651129     0.066039854
      4434.10       1.0171231     0.065412474
      4438.54       1.0150027     0.065110127
      4442.97       1.0189730     0.064809805
      4447.42       1.0360354     0.064511088
      4451.86       1.0203325     0.064213841
      4456.32       1.0168520     0.063918554
      4460.77       1.0104202     0.063624686
      4465.24       1.0251604     0.063332957
      4469.70       1.0254140     0.063042402
      4474.17       1.0206540     0.062453776
      4478.65       1.0415009     0.062168506
      4483.12       1.0226367     0.061884377
      4487.61       1.0166505     0.061602584
      4492.09       1.0449515     0.061322581
      4496.59       1.0463991     0.061044131
      4501.08       1.0485242     0.060767307
      4505.58       1.0622339     0.060492594
      4510.09       1.0772886     0.059928528
      4514.60       1.0577877     0.059656458
      4519.12       1.0223125     0.059386661
      4523.63       1.0009550     0.059118596
      4528.16      0.99569407     0.058851848
      4532.69      0.98589909     0.058587088
      4537.22      0.98412620     0.058050318
      4541.76      0.99151882     0.057790435
      4546.30       1.0273715     0.057532197
      4550.85       1.0233151     0.057276263
      4555.40       1.0381300     0.057208617
      4559.95       1.0336015     0.056952597
      4564.51       1.0626003     0.056432664
      4569.08       1.0523890     0.056182188
      4573.65       1.0409368     0.055933042
      4578.22       1.0596664     0.055685933
      4582.80       1.0578864     0.055441155
      4587.38       1.0822473     0.054937889
      4591.97       1.0834213     0.054694854
      4596.56       1.1031625     0.054454117
      4601.16       1.1072416     0.054215422
      4605.76       1.1210658     0.053977841
      4610.37       1.1225363     0.053494402
      4614.98       1.1344942     0.053262719
      4619.59       1.1574082     0.053204337
      4624.21       1.1770255     0.052972396
      4628.84       1.1812079     0.052499576
      4633.47       1.2251328     0.074281230
      4638.10       1.2156507     0.073958406
      4642.74       1.2444975     0.073643074
      4647.38       1.2398698     0.072702263
      4652.03       1.2274792     0.072379952
      4656.68       1.2074902     0.072064901
      4661.34       1.2189088     0.071757033
      4666.00       1.2616812     0.071388736
      4670.67       1.2752666     0.071071556
      4675.33       1.2935265     0.070761883
      4680.01       1.2620735     0.070457052
      4684.69       1.2136827     0.070155642
      4689.38       1.1874007     0.069290533
      4694.07       1.1649380     0.069496866
      4698.76       1.2075704     0.069194376
      4703.46       1.1789975     0.068899871
      4708.16       1.1686820     0.068052625
      4712.87       1.1444862     0.067771436
      4717.58       1.0814056     0.067969875
      4722.30       1.0657846     0.067682529
      4727.03       1.0283795     0.066850239
      4731.75       1.0491369     0.066576252
      4736.48       1.0737678     0.066310621
      4741.22       1.0550999     0.065956361
      4745.96       1.0242686     0.065682696
      4750.71       1.0328309     0.065417636
      4755.46      0.99675176     0.065161181
      4760.22      0.98744974     0.064350209
      4764.97      0.96234378     0.064551356
      4769.74      0.94747473     0.064295813
      4774.51      0.94338413     0.063512791
      4779.29      0.93020679     0.063251404
      4784.07       1.0242179     0.063455572
      4788.85       1.0796842     0.063207980
      4793.64       1.0292961     0.062436682
      4798.43       1.0254763     0.062186091
      4803.23       1.0293001     0.062392759
      4808.03       1.0636526     0.061642788
      4812.84       1.0642027     0.061394740
      4817.66       1.0549152     0.061155220
      4822.48       1.0994668     0.060869024
      4827.30       1.1070860     0.060623926
      4832.12       1.0500772     0.060388520
      4836.96       1.0495980     0.059684580
      4841.79       1.0087534     0.059871216
      4846.63      0.98033634     0.059639130
      4851.48      0.95951867     0.058946282
      4856.33      0.92579838     0.059136242
      4861.19      0.88275384     0.058908504
      4866.05      0.85521107     0.058227104
      4870.92      0.79652745     0.058419686
      4875.79      0.80347142     0.057739223
      4880.66      0.79393758     0.057527884
      4885.55      0.76797758     0.057325631
      4890.43      0.80921836     0.057051893
      4895.32      0.79476094     0.056846494
      4900.22      0.79288263     0.056650573
      4905.12      0.76190942     0.056381909
      4910.02      0.78201860     0.056183763
      4914.94      0.84163968     0.055538623
      4919.85      0.89286723     0.055730148
      4924.77      0.94401576     0.055540058
      4929.70       1.0134901     0.054901797
      4934.62       1.0837797     0.055096870
      4939.56       1.1289832     0.054476645
      4944.50       1.2006658     0.054282243
      4949.44       1.2925086     0.054481855
      4954.39       1.3161102     0.053866901
      4959.35       1.3072119     0.053680623
      4964.31       1.3316540     0.053461553
      4969.27       1.3688938     0.053274579
      4974.24       1.3421248     0.053067609
      4979.22       1.3020404     0.052878658
      4984.20       1.2682392     0.052301710
      4989.18       1.2065843     0.052492667
      4994.17       1.1610769     0.052314237
      4999.16       1.1136247     0.051752863
      5004.16       1.0730247     0.051936606
      5009.17       1.0398293     0.051378000
      5014.18       1.0037818     0.051568281
      5019.19      0.97364137     0.051011919
      5024.21      0.97111358     0.050859281
      5029.23      0.99559665     0.050655362
      5034.26      0.97279791     0.050501979
      5039.30       1.0180587     0.050306555
      5044.34       1.0324928     0.050154165
      5049.39       1.0199003     0.049620787
      5054.43       1.0258003     0.049814528
      5059.49       1.0506392     0.049290160
      5064.55       1.0381508     0.049481796
      5069.61      0.97420609     0.048966089
      5074.68      0.98689919     0.049158463
      5079.76       1.0632535     0.048649526
      5084.84       1.0932233     0.048503725
      5089.92       1.0919632     0.048340403
      5095.01       1.0870010     0.048196079
      5100.11       1.1066301     0.048037014
      5105.21       1.0680450     0.047895539
      5110.31       1.0703617     0.047740047
      5115.42       1.0865999     0.047600853
      5120.54       1.0804637     0.047450886
      5125.66       1.1162601     0.047314719
      5130.79       1.1147608     0.047167351
      5135.92       1.1192771     0.047034900
      5141.05       1.1458720     0.046890429
      5146.20       1.1330101     0.046761100
      5151.34       1.1341739     0.046620287
      5156.49       1.1137256     0.046156841
      5161.65       1.0896745     0.046355860
      5166.81       1.1067777     0.045900136
      5171.98       1.1607033     0.046097863
      5177.15       1.1627031     0.045648742
      5182.33       1.1474097     0.045847631
      5187.51       1.1705525     0.045405264
      5192.70       1.1705787     0.045272727
      5197.89       1.1824267     0.045169538
      5203.09       1.1659043     0.045037550
      5208.29       1.2003297     0.044939282
      5213.50       1.2145124     0.044809545
      5218.72       1.2416537     0.044384502
      5223.93       1.2877273     0.044587039
      5229.16       1.2881749     0.044165661
      5234.39       1.3104578     0.044372668
      5239.62       1.3599494     0.043951675
      5244.86       1.3311687     0.043844480
      5250.11       1.3628301     0.043746530
      5255.36       1.3498831     0.043638056
      5260.61       1.3406499     0.043539630
      5265.87       1.3480800     0.043439490
      5271.14       1.3062182     0.043340194
      5276.41       1.2907778     0.042947507
      5281.69       1.2839878     0.043148301
      5286.97       1.2706240     0.042765383
      5292.26       1.2364422     0.042965477
      5297.55       1.2331837     0.042871650
      5302.85       1.2116503     0.042491260
      5308.15       1.1874547     0.042695961
      5313.46       1.1572589     0.042325302
      5318.77       1.1553588     0.042231625
      5324.09       1.1142950     0.042439891
      5329.42       1.0909348     0.042072854
      5334.75       1.1126309     0.041985147
      5340.08       1.1306911     0.041622607
      5345.42       1.1141869     0.041834115
      5350.77       1.1098917     0.041751704
      5356.12       1.0714823     0.041394688
      5361.48       1.0718312     0.041608407
      5366.83       1.0805797     0.041531088
      5372.20       1.0899830     0.041178941
      5377.58       1.1268948     0.041395525
      5382.95       1.1226740     0.041043552
      5388.34       1.1497525     0.040974878
      5393.72       1.1523670     0.040911598
      5399.12       1.1640376     0.040847773
      5404.52       1.1444982     0.040782184
      5409.92       1.1228724     0.040722256
      5415.33       1.1196998     0.040391459
      5420.75       1.1504072     0.040601002
      5426.17       1.1557253     0.040543824
      5431.60       1.1682769     0.040221330
      5437.03       1.1839747     0.040161390
      5442.47       1.2453086     0.040376956
      5447.91       1.2535651     0.040326982
      5453.36       1.2512791     0.040005834
      5458.81       1.2614497     0.039953699
      5464.27       1.3060269     0.040172787
      5469.73       1.3182302     0.039861911
      5475.20       1.3233798     0.039811539
      5480.68       1.3379135     0.039763983
      5486.16       1.2886206     0.039456861
      5491.65       1.3045566     0.039681955
      5497.14       1.2526809     0.039635820
      5502.64       1.2392344     0.039593242
      5508.14       1.2025132     0.039291844
      5513.65       1.1727260     0.039255500
      5519.16       1.2004948     0.039479168
      5524.68       1.1884399     0.039441358
      5530.20       1.1587887     0.039143008
      5535.73       1.1516091     0.039110823
      5541.27       1.1624208     0.039081420
      5546.81       1.1903649     0.039305704
      5552.36       1.1792549     0.039011998
      5557.91       1.1895106     0.038982623
      5563.47       1.2042536     0.038955299
      5569.04       1.2207029     0.038931655
      5574.60       1.2394287     0.038648093
      5580.18       1.2354841     0.038621391
      5585.76       1.2292834     0.038847402
      5591.35       1.2100434     0.038824227
      5596.94       1.2144499     0.038553575
      5602.53       1.1570092     0.038529454
      5608.14       1.1059063     0.038506950
      5613.75       1.0673118     0.038487049
      5619.36       1.0304208     0.038468595
      5624.98      0.98662999     0.038456124
      5630.60      0.91247412     0.038436120
      5636.23      0.85554921     0.038417555
      5641.87      0.79426538     0.038400294
      5647.51      0.75258711     0.038385389
      5653.16      0.71362411     0.038371583
      5658.82      0.70183206     0.038108235
      5664.47      0.70786921     0.038097832
      5670.14      0.69210121     0.038088176
      5675.81      0.70138284     0.038080259
      5681.48      0.71094793     0.038073438
      5687.17      0.72464692     0.038306326
      5692.85      0.74398796     0.038046893
      5698.55      0.76545699     0.038039892
      5704.25      0.76508656     0.038033535
      5709.95      0.75307600     0.038028965
      5715.66      0.75053840     0.038024895
      5721.38      0.76139320     0.038021902
      5727.10      0.77729821     0.038019912
      5732.83      0.77140775     0.038018691
      5738.56      0.79437979     0.037775164
      5744.30      0.77655602     0.037773124
      5750.04      0.76597863     0.037772215
      5755.79      0.79438848     0.037772245
      5761.55      0.79843530     0.037772930
      5767.31      0.81716457     0.037774243
      5773.08      0.82986577     0.037776296
      5778.85      0.83464314     0.037780139
      5784.63      0.85082840     0.037786378
      5790.41      0.89444374     0.037796018
      5796.21      0.91609471     0.037805733
      5802.00      0.91838209     0.037569506
      5807.81      0.91733319     0.037579791
      5813.61      0.94867650     0.037594451
      5819.43      0.95919903     0.037619756
      5825.25      0.95373626     0.037657421
      5831.07      0.98011101     0.037698713
      5836.90       1.0161354     0.037741025
