# starting wavelength =        3766.5500
# ending wavelength =        9814.3800
# O2 telluric scale =       0.68341567
# O2 telluric shift =       0.50991566
# H2O telluric scale =        0
# H2O telluric shift =        0
      3767.45      0.75867058     0.035286049
      3771.22      0.81124332     0.029698281
      3774.99      0.82640694     0.025508422
      3778.77      0.83343293     0.021932321
      3782.54      0.83365575     0.019251183
      3786.33      0.83187192     0.017244937
      3790.11      0.83802864     0.015543528
      3793.90      0.84137591     0.014288580
      3797.70      0.85823007     0.013343724
      3801.50      0.88471881     0.012545792
      3805.30      0.90086369     0.011940481
      3809.10      0.91868509     0.011476138
      3812.91      0.94537893     0.011076985
      3816.73      0.96198012     0.010746363
      3820.54      0.98926683     0.010470235
      3824.36       1.0290992     0.010246722
      3828.19       1.0604024     0.010046792
      3832.02       1.1023358    0.0098644024
      3835.85       1.1443125    0.0097139025
      3839.68       1.1879894    0.0096043287
      3843.52       1.2290645    0.0095861262
      3847.37       1.2772980    0.0095654639
      3851.22       1.3477792    0.0095473392
      3855.07       1.4220803    0.0095267275
      3858.92       1.4965597    0.0095180856
      3862.78       1.5846245    0.0094881122
      3866.64       1.6799788    0.0094676364
      3870.51       1.7647397    0.0094591040
      3874.38       1.8631943    0.0094292387
      3878.26       1.9486079    0.0094207686
      3882.13       2.0370229    0.0094004131
      3886.02       2.1295793    0.0093706186
      3889.90       2.2298176    0.0093622427
      3893.79       2.3091042    0.0093419828
      3897.69       2.3960731    0.0093337167
      3901.59       2.4793648    0.0093040477
      3905.49       2.5492506    0.0092838649
      3909.39       2.6018991    0.0092756825
      3913.30       2.6588092    0.0092556390
      3917.22       2.7154131    0.0092356085
      3921.13       2.7647967    0.0092275450
      3925.06       2.8087199    0.0092075709
      3928.98       2.8496296    0.0091780677
      3932.91       2.8796957    0.0091581319
      3936.84       2.9197670    0.0091502234
      3940.78       2.9474520    0.0091304103
      3944.72       2.9521783    0.0091105808
      3948.67       2.9658687    0.0090908336
      3952.61       2.9693369    0.0090831321
      3956.57       2.9706131    0.0090633734
      3960.52       2.9671980    0.0090437270
      3964.48       2.9597262    0.0090240544
      3968.45       2.9482439    0.0090044578
      3972.42       2.9477092    0.0089970357
      3976.39       2.9463986    0.0089774467
      3980.37       2.9378227    0.0089579804
      3984.35       2.9379012    0.0089384397
      3988.33       2.9281785    0.0089287973
      3992.32       2.9288662    0.0089093631
      3996.31       2.9262068    0.0088900396
      4000.31       2.9187283    0.0088707114
      4004.31       2.9138730    0.0088636263
      4008.31       2.8915913    0.0088442815
      4012.32       2.8797590    0.0088251458
      4016.33       2.8662966    0.0088157673
      4020.35       2.8374719    0.0087965892
      4024.37       2.8005910    0.0087775291
      4028.40       2.7604573    0.0087584004
      4032.42       2.7076948    0.0087492776
      4036.46       2.6717244    0.0087302924
      4040.50       2.6174582    0.0087112876
      4044.54       2.5700245    0.0087023529
      4048.58       2.5211534    0.0086834771
      4052.63       2.4685911    0.0086645765
      4056.68       2.4254329    0.0086557872
      4060.74       2.3878447    0.0086370466
      4064.80       2.3358125    0.0086182728
      4068.86       2.2817310    0.0086096468
      4072.93       2.2428831    0.0085785254
      4077.01       2.1941902    0.0085700364
      4081.08       2.1569556    0.0085514130
      4085.17       2.1155331    0.0085429851
      4089.25       2.0863546    0.0085244600
      4093.34       2.0667298    0.0085162038
      4097.43       2.0424546    0.0084977651
      4101.53       2.0229921    0.0084896403
      4105.63       2.0146818    0.0084586663
      4109.74       2.0024625    0.0084505911
      4113.85       2.0005055    0.0084322606
      4117.96       2.0012452    0.0084243241
      4122.08       2.0011564    0.0084165325
      4126.20       2.0120710    0.0083856680
      4130.33       2.0328261    0.0083779206
      4134.46       2.0494357    0.0083598245
      4138.59       2.0587247    0.0083522136
      4142.73       2.0702924    0.0083318920
      4146.88       2.0876216    0.0083138891
      4151.02       2.1088516    0.0083065045
      4155.18       2.1195067    0.0082991716
      4159.33       2.1281990    0.0082790501
      4163.49       2.1400838    0.0082612444
      4167.65       2.1478502    0.0082541224
      4171.82       2.1580803    0.0082340584
      4175.99       2.1642461    0.0082270525
      4180.17       2.1649677    0.0082071851
      4184.35       2.1633259    0.0081895545
      4188.54       2.1572750    0.0081827750
      4192.72       2.1575451    0.0081629562
      4196.92       2.1513137    0.0081563537
      4201.11       2.1481570    0.0081498329
      4205.31       2.1375501    0.0081301826
      4209.52       2.1302613    0.0081237716
      4213.73       2.1206678    0.0081041712
      4217.94       2.1095081    0.0080980026
      4222.16       2.1063542    0.0080785210
      4226.38       2.1012755    0.0080724535
      4230.61       2.1087068    0.0080530449
      4234.84       2.1165161    0.0080471904
      4239.08       2.1155615    0.0080279673
      4243.32       2.1094070    0.0080222251
      4247.56       2.1071846    0.0080030109
      4251.81       2.1066276    0.0079975278
      4256.06       2.1054090    0.0079783521
      4260.32       2.1004131    0.0079729533
      4264.58       2.1045816    0.0079539932
      4268.84       2.1057620    0.0079465909
      4273.11       2.0972357    0.0079415581
      4277.38       2.0887303    0.0079226533
      4281.66       2.0807148    0.0079177098
      4285.94       2.0795503    0.0078989733
      4290.23       2.0809519    0.0078920747
      4294.52       2.0781178    0.0078875066
      4298.81       2.0725196    0.0078688038
      4303.11       2.0745484    0.0078502865
      4307.42       2.0691027    0.0078580482
      4311.72       2.0637999    0.0078396315
      4316.04       2.0562334    0.0078211825
      4320.35       2.0504560    0.0078294029
      4324.67       2.0448809    0.0078111355
      4329.00       2.0304017    0.0077928985
      4333.33       2.0042387    0.0077870094
      4337.66       1.9766999    0.0077835779
      4342.00       1.9450468    0.0077779965
      4346.34       1.9049003    0.0077599663
      4350.69       1.8547477    0.0077546584
      4355.04       1.7979330    0.0077515589
      4359.39       1.7329116    0.0077338538
      4363.75       1.6621934    0.0077288116
      4368.12       1.6026327    0.0077239537
      4372.48       1.5448675    0.0077063313
      4376.86       1.4965545    0.0076607367
      4381.23       1.4515139    0.0076280268
      4385.61       1.4092655    0.0075955419
      4390.00       1.3825242    0.0075653416
      4394.39       1.3620284    0.0075329594
      4398.79       1.3646024    0.0074881339
      4403.18       1.3623506    0.0074560046
      4407.59       1.3719462    0.0074239932
      4412.00       1.3882799    0.0073798439
      4416.41       1.4066228    0.0073479972
      4420.82       1.4140454    0.0073162606
      4425.25       1.4366674    0.0072846697
      4429.67       1.4580894    0.0072411152
      4434.10       1.4773307    0.0072097590
      4438.54       1.4959734    0.0071785065
      4442.97       1.5115624    0.0071473455
      4447.42       1.5293749    0.0071045864
      4451.86       1.5457921    0.0070736588
      4456.32       1.5704406    0.0070427993
      4460.77       1.5970235    0.0070120282
      4465.24       1.6217920    0.0069678482
      4469.70       1.6438984    0.0069373225
      4474.17       1.6845699    0.0068955863
      4478.65       1.7202865    0.0068652814
      4483.12       1.7659906    0.0068350692
      4487.61       1.8024433    0.0068050032
      4492.09       1.8439214    0.0067618483
      4496.59       1.8924258    0.0067319349
      4501.08       1.9250767    0.0067021646
      4505.58       1.9635673    0.0066724116
      4510.09       2.0011154    0.0066301223
      4514.60       2.0417312    0.0066006485
      4519.12       2.0788335    0.0065712705
      4523.63       2.1118339    0.0065294972
      4528.16       2.1458383    0.0065003059
      4532.69       2.1807922    0.0064712760
      4537.22       2.2135062    0.0064299769
      4541.76       2.2507526    0.0064011814
      4546.30       2.2798158    0.0063725008
      4550.85       2.3037488    0.0063316669
      4555.40       2.3260600    0.0063031238
      4559.95       2.3463600    0.0062847784
      4564.51       2.3571665    0.0062444832
      4569.08       2.3639074    0.0062162215
      4573.65       2.3596792    0.0061763514
      4578.22       2.3506503    0.0061484008
      4582.80       2.3418919    0.0061185190
      4587.38       2.3228304    0.0060907036
      4591.97       2.3057292    0.0060514408
      4596.56       2.2881497    0.0060238322
      4601.16       2.2693327    0.0059850459
      4605.76       2.2570209    0.0059557775
      4610.37       2.2397367    0.0059284771
      4614.98       2.2209180    0.0058900993
      4619.59       2.2126714    0.0058722634
      4624.21       2.2033684    0.0058342098
      4628.84       2.1952001    0.0057964316
      4633.47       2.1900774    0.0057786732
      4638.10       2.1864146    0.0057411759
      4642.74       2.1765412    0.0057127558
      4647.38       2.1711690    0.0056862997
      4652.03       2.1644819    0.0056492161
      4656.68       2.1573394    0.0056212001
      4661.34       2.1425962    0.0055949701
      4666.00       2.1338140    0.0055671070
      4670.67       2.1244783    0.0055308058
      4675.33       2.1146819    0.0055031092
      4680.01       2.0971244    0.0054671310
      4684.69       2.0843933    0.0054498428
      4689.38       2.0680572    0.0054141101
      4694.07       2.0592281    0.0053868807
      4698.76       2.0380882    0.0053515639
      4703.46       2.0220289    0.0053245366
      4708.16       2.0110590    0.0052976517
      4712.87       1.9908365    0.0052627649
      4717.58       1.9746318    0.0052361115
      4722.30       1.9550418    0.0052112033
      4727.03       1.9273624    0.0051847241
      4731.75       1.9002388    0.0051583473
      4736.48       1.8685225    0.0051242968
      4741.22       1.8234978    0.0050980999
      4745.96       1.7724779    0.0050720064
      4750.71       1.7146855    0.0050460271
      4755.46       1.6591053    0.0050124818
      4760.22       1.5968401    0.0049775632
      4764.97       1.5341542    0.0049519757
      4769.74       1.4675905    0.0049264598
      4774.51       1.4060006    0.0048936273
      4779.29       1.3500209    0.0048683195
      4784.07       1.3016888    0.0048431290
      4788.85       1.2583703    0.0048180200
      4793.64       1.2236401    0.0047930009
      4798.43       1.2075161    0.0047593459
      4803.23       1.2004913    0.0047345454
      4808.03       1.2062320    0.0047028108
      4812.84       1.2174336    0.0046782183
      4817.66       1.2348794    0.0046537476
      4822.48       1.2614461    0.0046209326
      4827.30       1.2843473    0.0045967014
      4832.12       1.3038125    0.0045725248
      4836.96       1.3239828    0.0045484745
      4841.79       1.3428605    0.0045161902
      4846.63       1.3517219    0.0044923356
      4851.48       1.3522523    0.0044685405
      4856.33       1.3455035    0.0044368358
      4861.19       1.3311240    0.0044133028
      4866.05       1.3126926    0.0043883305
      4870.92       1.2933802    0.0043649531
      4875.79       1.2749978    0.0043416975
      4880.66       1.2567210    0.0043106608
      4885.55       1.2401661    0.0042875909
      4890.43       1.2397755    0.0042569545
      4895.32       1.2435982    0.0042341458
      4900.22       1.2563851    0.0042098976
      4905.12       1.2813668    0.0041872336
      4910.02       1.3172304    0.0041571494
      4914.94       1.3594231    0.0041346737
      4919.85       1.4074154    0.0041109205
      4924.77       1.4583184    0.0040813010
      4929.70       1.5083832    0.0040591603
      4934.62       1.5599862    0.0040298422
      4939.56       1.6056995    0.0040137055
      4944.50       1.6484134    0.0039846718
      4949.44       1.6898866    0.0039558375
      4954.39       1.7175773    0.0039398727
      4959.35       1.7430473    0.0039112815
      4964.31       1.7560866    0.0038828902
      4969.27       1.7574017    0.0038670880
      4974.24       1.7450438    0.0038389398
      4979.22       1.7204781    0.0038164384
      4984.20       1.6917286    0.0037886062
      4989.18       1.6503339    0.0037730270
      4994.17       1.6025182    0.0037454575
      4999.16       1.5514800    0.0037233500
      5004.16       1.4985941    0.0036960650
      5009.17       1.4425688    0.0036742471
      5014.18       1.3855054    0.0036472574
      5019.19       1.3376772    0.0036320361
      5024.21       1.2945567    0.0036053773
      5029.23       1.2610360    0.0035838838
      5034.26       1.2346923    0.0035624991
      5039.30       1.2215650    0.0035362057
      5044.34       1.2166808    0.0035150606
      5049.39       1.2191902    0.0034890918
      5054.43       1.2372821    0.0034681327
      5059.49       1.2567922    0.0034472630
      5064.55       1.2817517    0.0034265121
      5069.61       1.3139267    0.0034010780
      5074.68       1.3485175    0.0033805156
      5079.76       1.3877451    0.0033600662
      5084.84       1.4237396    0.0033351052
      5089.92       1.4628088    0.0033148679
      5095.01       1.4996505    0.0032889322
      5100.11       1.5321212    0.0032688982
      5105.21       1.5584539    0.0032489573
      5110.31       1.5813419    0.0032291189
      5115.42       1.6022337    0.0032049489
      5120.54       1.6169702    0.0031853284
      5125.66       1.6244337    0.0031602332
      5130.79       1.6268651    0.0031408040
      5135.92       1.6273806    0.0031214619
      5141.05       1.6220372    0.0031022062
      5146.20       1.6145908    0.0030777213
      5151.34       1.6061837    0.0030586768
      5156.49       1.5925739    0.0030397453
      5161.65       1.5807405    0.0030208998
      5166.81       1.5739076    0.0029969013
      5171.98       1.5716414    0.0029782716
      5177.15       1.5717021    0.0029545827
      5182.33       1.5756963    0.0029361599
      5187.51       1.5845913    0.0029178177
      5192.70       1.5964809    0.0028945047
      5197.89       1.6085288    0.0028763743
      5203.09       1.6270485    0.0028572549
      5208.29       1.6506565    0.0028392730
      5213.50       1.6715518    0.0028165236
      5218.72       1.6965667    0.0027987641
      5223.93       1.7213683    0.0027763075
      5229.16       1.7466129    0.0027587498
      5234.39       1.7702979    0.0027402454
      5239.62       1.7901644    0.0027228540
      5244.86       1.8072497    0.0027009195
      5250.11       1.8201545    0.0026791267
      5255.36       1.8311963    0.0026656130
      5260.61       1.8428782    0.0026440670
      5265.87       1.8526177    0.0026271662
      5271.14       1.8584166    0.0026093457
      5276.41       1.8599383    0.0025881945
      5281.69       1.8605250    0.0025671912
      5286.97       1.8576939    0.0025540840
      5292.26       1.8522240    0.0025333049
      5297.55       1.8429485    0.0025160054
      5302.85       1.8383017    0.0024955175
      5308.15       1.8268252    0.0024826480
      5313.46       1.8152355    0.0024624020
      5318.77       1.8044680    0.0024422874
      5324.09       1.7920151    0.0024254847
      5329.42       1.7775492    0.0024087981
      5334.75       1.7615973    0.0023890628
      5340.08       1.7455117    0.0023765793
      5345.42       1.7289573    0.0023571100
      5350.77       1.7117956    0.0023407758
      5356.12       1.6941561    0.0023215100
      5361.48       1.6772616    0.0023054031
      5366.83       1.6571536    0.0022893912
      5372.20       1.6386244    0.0022705325
      5377.58       1.6207877    0.0022547092
      5382.95       1.6068739    0.0022389761
      5388.34       1.5915774    0.0022204668
      5393.72       1.5809577    0.0022049395
      5399.12       1.5694949    0.0021895040
      5404.52       1.5625591    0.0021741504
      5409.92       1.5568906    0.0021525024
      5415.33       1.5552995    0.0021373768
      5420.75       1.5542683    0.0021223431
      5426.17       1.5554464    0.0021073958
      5431.60       1.5562939    0.0020925329
      5437.03       1.5575817    0.0020751431
      5442.47       1.5585295    0.0020570123
      5447.91       1.5585589    0.0020424501
      5453.36       1.5525651    0.0020279969
      5458.81       1.5464291    0.0020136225
      5464.27       1.5414891    0.0019959866
      5469.73       1.5339967    0.0019818115
      5475.20       1.5288827    0.0019677221
      5480.68       1.5232144    0.0019504581
      5486.16       1.5154453    0.0019365511
      5491.65       1.5064145    0.0019227342
      5497.14       1.5011089    0.0019058351
      5502.64       1.4932326    0.0018922107
      5508.14       1.4861023    0.0018786975
      5513.65       1.4813934    0.0018621382
      5519.16       1.4749206    0.0018487892
      5524.68       1.4650734    0.0018325080
      5530.20       1.4581648    0.0018216043
      5535.73       1.4498128    0.0018055371
      5541.27       1.4424501    0.0017925659
      5546.81       1.4335715    0.0017767200
      5552.36       1.4215401    0.0017639247
      5557.91       1.4096133    0.0017504902
      5563.47       1.4026797    0.0017350083
      5569.04       1.3938262    0.0017224966
      5574.60       1.3857805    0.0017072410
      5580.18       1.3787904    0.0016942152
      5585.76       1.3716954    0.0016819491
      5591.35       1.3631392    0.0016670610
      5596.94       1.3590000    0.0016543138
      5602.53       1.3565981    0.0016423374
      5608.14       1.3553257    0.0016277543
      5613.75       1.3533226    0.0016152905
      5619.36       1.3524583    0.0016009727
      5624.98       1.3493351    0.0015912826
      5630.60       1.3449237    0.0015771610
      5636.23       1.3425329    0.0015650533
      5641.87       1.3349395    0.0015511573
      5647.51       1.3276143    0.0015392576
      5653.16       1.3168608    0.0015255914
      5658.82       1.3029123    0.0015138733
      5664.47       1.2865530    0.0015028890
      5670.14       1.2659284    0.0014913320
      5675.81       1.2385367    0.0014798693
      5681.48       1.2072789    0.0014667273
      5687.17       1.1693792    0.0014554579
      5692.85       1.1272838    0.0014425524
      5698.55       1.0861709    0.0014314562
      5704.25       1.0432878    0.0014204640
      5709.95       1.0033036    0.0014079343
      5715.66      0.96829876    0.0013972866
      5721.38      0.93690620    0.0013845797
      5727.10      0.91732890    0.0013740962
      5732.83      0.90786294    0.0013620488
      5738.56      0.90401016    0.0013518190
      5744.30      0.91265695    0.0013419446
      5750.04      0.93132991    0.0013326055
      5755.79      0.96676099    0.0013215285
      5761.55       1.0130947    0.0013125702
      5767.31       1.0655516    0.0013021886
      5773.08       1.1264528    0.0012936539
      5778.85       1.1935776    0.0012830678
