# starting wavelength =        3949.9493
# ending wavelength =        7311.4900
# O2 telluric scale =        0
# O2 telluric shift =        0
# H2O telluric scale =        0
# H2O telluric shift =        0
      3952.61       2.6762498      0.35972917
      3956.57       2.7405387      0.35616404
      3960.52       2.7473273      0.34985390
      3964.48       2.7999556      0.34626735
      3968.45       2.8569021      0.34641769
      3972.42       2.9933737      0.34035057
      3976.39       3.0005287      0.33679619
      3980.37       3.0187741      0.33329558
      3984.35       2.8473223      0.33338974
      3988.33       2.9393640      0.32746725
      3992.32       2.8444447      0.32398604
      3996.31       2.8998045      0.32056213
      4000.31       2.9647387      0.31477888
      4004.31       2.9565664      0.31486631
      4008.31       2.9181930      0.31144741
      4012.32       2.8598432      0.30807464
      4016.33       2.7763904      0.30246054
      4020.35       2.7750792      0.29921444
      4024.37       2.6915383      0.29916842
      4028.40       2.7124766      0.29586307
      4032.42       2.6680185      0.29039885
      4036.46       2.7344152      0.28720084
      4040.50       2.7605306      0.28405211
      4044.54       2.7388178      0.28389673
      4048.58       2.7694708      0.27859014
      4052.63       2.6875568      0.27544646
      4056.68       2.6399323      0.27233833
      4060.74       2.5980600      0.26926358
      4064.80       2.6332551      0.26423473
      4068.86       2.6425887      0.26394429
      4072.93       2.6508527      0.26088522
      4077.01       2.6587652      0.25785925
      4081.08       2.6238735      0.25486313
      4085.17       2.5209478      0.25004350
      4089.25       2.4414186      0.24706174
      4093.34       2.4011597      0.24671565
      4097.43       2.3851189      0.24376061
      4101.53       2.3562816      0.24083540
      4105.63       2.3574243      0.23624950
      4109.74       2.2360107      0.23333315
      4113.85       2.2317997      0.23044998
      4117.96       2.1849212      0.22759653
      4122.08       2.1460417      0.22719316
      4126.20       2.1102352      0.22285851
      4130.33       2.0204176      0.22001817
      4134.46       1.9789439      0.21720229
      4138.59       1.9937329      0.21441631
      4142.73       2.0159407      0.21165723
      4146.88       1.9710440      0.20891555
      4151.02       1.9625931      0.20477758
      4155.18       1.9180920      0.20210335
      4159.33       1.8717348      0.20163768
      4163.49       1.8265865      0.19894100
      4167.65       1.8194062      0.19626897
      4171.82       1.7659692      0.19361693
      4175.99       1.7305630      0.18968609
      4180.17       1.6883024      0.18709658
      4184.35       1.6458375      0.18452579
      4188.54       1.6183780      0.18197844
      4192.72       1.6478550      0.17945256
      4196.92       1.6872676      0.17694010
      4201.11       1.7093185      0.17444836
      4205.31       1.6887021      0.17265451
      4209.52       1.7303680      0.17016603
      4213.73       1.7249906      0.16770270
      4217.94       1.7278558      0.16525433
      4222.16       1.7015191      0.16281984
      4226.38       1.6648466      0.16040576
      4230.61       1.6478444      0.15800884
      4234.84       1.5462330      0.15562837
      4239.08       1.4934819      0.15232215
      4243.32       1.4478444      0.14997692
      4247.56       1.4072456      0.14764632
      4251.81       1.3397064      0.14533552
      4256.06       1.3600948      0.14304156
      4260.32       1.3510366      0.14076431
      4264.58       1.3612005      0.13851158
      4268.84       1.3981919      0.13626900
      4273.11       1.4170801      0.13403980
      4277.38       1.4122281      0.13182804
      4281.66       1.4033669      0.12963197
      4285.94       1.4005113      0.12745459
      4290.23       1.4006022      0.12454267
      4294.52       1.4069734      0.12240875
      4298.81       1.3602806      0.12029012
      4303.11       1.3353889      0.11818750
      4307.42       1.3446013      0.11609943
      4311.72       1.3171764      0.11402885
      4316.04       1.2759069      0.11197478
      4320.35       1.2455670      0.10993106
      4324.67       1.2182127      0.10790374
      4329.00       1.1588681      0.10589050
      4333.33       1.1352708      0.10389167
      4337.66       1.1393551      0.10191298
      4342.00       1.1334219     0.099944286
      4346.34       1.0891965     0.097986765
      4350.69       1.0538743     0.096045839
      4355.04      0.97910504     0.094119335
      4359.39      0.92691496     0.092209390
      4363.75      0.86212007     0.090315421
      4368.12      0.78270956     0.088432405
      4372.48      0.73650042     0.086562157
      4376.86      0.69858653     0.084707645
      4381.23      0.66716159     0.082867491
      4385.61      0.65905225     0.081043669
      4390.00      0.69426183     0.079235487
      4394.39      0.70595021     0.077438207
      4398.79      0.75991939     0.075653748
      4403.18      0.81133394     0.073884708
      4407.59      0.87523049     0.072129390
      4412.00      0.91271894     0.070391493
      4416.41      0.97733905     0.067812506
      4420.82       1.0019756     0.066114359
      4425.25       1.0579127     0.064431055
      4429.67       1.0763447     0.062761357
      4434.10       1.1257353     0.061105648
      4438.54       1.1458701     0.059467842
      4442.97       1.1434596     0.057840848
      4447.42       1.1426932     0.056226204
      4451.86       1.1235511     0.054625549
      4456.32       1.0835700     0.053038452
      4460.77       1.0299019     0.051466337
      4465.24      0.97138229     0.049214727
      4469.70      0.95353564     0.047675859
      4474.17      0.96172667     0.046149394
      4478.65      0.93918554     0.044636637
      4483.12      0.91501768     0.043138092
      4487.61      0.92284809     0.041653350
      4492.09      0.90570809     0.040179383
      4496.59      0.87196508     0.038716886
      4501.08      0.88856173     0.036711811
      4505.58      0.88798890     0.035374022
      4510.09      0.93228581     0.033947742
      4514.60      0.98313447     0.032532395
      4519.12       1.0557281     0.031127107
      4523.63       1.0968821     0.029732176
      4528.16       1.1378196     0.028348302
      4532.69       1.2056220     0.026508398
      4537.22       1.2309200     0.025156968
      4541.76       1.2571710     0.023812487
      4546.30       1.2713945     0.022474841
      4550.85       1.2755517     0.021143388
      4555.40       1.3039374     0.019786218
      4559.95       1.3165989     0.018201055
      4564.51       1.3831619     0.017050799
      4569.08       1.4165107     0.015917266
      4573.65       1.4457970     0.014821270
      4578.22       1.4598944     0.013794095
      4582.80       1.5023876     0.012570439
      4587.38       1.4813611     0.011781673
      4591.97       1.4656285     0.011120847
      4596.56       1.4550505     0.010573800
      4601.16       1.4327407     0.010142333
      4605.76       1.4145413    0.0097117441
      4610.37       1.3944193    0.0094958054
      4614.98       1.3819606    0.0093503864
      4619.59       1.3553614    0.0092574383
      4624.21       1.3270086    0.0092490757
      4628.84       1.3095813    0.0091527296
      4633.47       1.3044381    0.0091172750
      4638.10       1.2911340    0.0090806454
      4642.74       1.2903738    0.0090454495
      4647.38       1.2920328    0.0089597775
      4652.03       1.3220776    0.0090314788
      4656.68       1.3461370    0.0090299173
      4661.34       1.3895913    0.0090288133
      4666.00       1.4203370    0.0090280274
      4670.67       1.4439242    0.0089600010
      4675.33       1.4496602    0.0089599459
      4680.01       1.4627186    0.0090289658
      4684.69       1.4806743    0.0089605555
      4689.38       1.4808246    0.0089601095
      4694.07       1.4782956    0.0089600901
      4698.76       1.4519812    0.0089605025
      4703.46       1.4426573    0.0089603819
      4708.16       1.4125765    0.0089600857
      4712.87       1.4029824    0.0089602716
      4717.58       1.3901203    0.0089609827
      4722.30       1.3635172    0.0089605896
      4727.03       1.3167492    0.0089597531
      4731.75       1.3003912    0.0089600785
      4736.48       1.2634288    0.0088917006
      4741.22       1.2566880    0.0088903543
      4745.96       1.2486919    0.0089597875
      4750.71       1.2373363    0.0088925727
      4755.46       1.2218540    0.0088908186
      4760.22       1.1898630    0.0088900247
      4764.97       1.1738871    0.0089601629
      4769.74       1.1447310    0.0088919405
      4774.51       1.1264251    0.0088900578
      4779.29       1.0917742    0.0088896082
      4784.07       1.0670681    0.0088929595
      4788.85       1.0286562    0.0088910329
      4793.64       1.0052733    0.0088899161
      4798.43      0.96685531    0.0088932216
      4803.23      0.94726422    0.0088909053
      4808.03      0.91806037    0.0088898691
      4812.84      0.87436578    0.0088252540
      4817.66      0.83013774    0.0088915769
      4822.48      0.79401816    0.0088252436
      4827.30      0.75272342    0.0088248414
      4832.12      0.71505095    0.0088917242
      4836.96      0.66123342    0.0088256901
      4841.79      0.62295537    0.0088253501
      4846.63      0.58069226    0.0088260603
      4851.48      0.53409767    0.0088251009
      4856.33      0.49784070    0.0088251553
      4861.19      0.47196864    0.0087595997
      4866.05      0.46678926    0.0088253243
      4870.92      0.44538993    0.0088250769
      4875.79      0.42999773    0.0087586966
      4880.66      0.41180488    0.0088249858
      4885.55      0.41118160    0.0088255390
      4890.43      0.41348401    0.0087588363
      4895.32      0.44251837    0.0088251649
      4900.22      0.46174641    0.0087597330
      4905.12      0.47288848    0.0087582201
      4910.02      0.49620421    0.0087618210
      4914.94      0.52972722    0.0087592678
      4919.85      0.56301196    0.0087581007
      4924.77      0.59935560    0.0087599904
      4929.70      0.64695611    0.0087582108
      4934.62      0.70654536    0.0087620075
      4939.56      0.76627270    0.0087592885
      4944.50      0.83677965    0.0086962064
      4949.44      0.90725547    0.0087598449
      4954.39      0.97876845    0.0087582356
      4959.35       1.0542393    0.0086964545
      4964.31       1.1077820    0.0087589999
      4969.27       1.1805230    0.0086962377
      4974.24       1.2421722    0.0087592782
      4979.22       1.3093652    0.0086960466
      4984.20       1.3607348    0.0086967077
      4989.18       1.4163733    0.0086965131
      4994.17       1.4327539    0.0086963743
      4999.16       1.4536860    0.0086964757
      5004.16       1.4754948    0.0086960466
      5009.17       1.4733606    0.0086330024
      5014.18       1.4679048    0.0086963148
      5019.19       1.4481257    0.0086334105
      5024.21       1.4218620    0.0086960582
      5029.23       1.3896625    0.0086336416
      5034.26       1.3391785    0.0086963484
      5039.30       1.2855566    0.0086341494
      5044.34       1.2294579    0.0086963162
      5049.39       1.1527978    0.0086340202
      5054.43       1.0834697    0.0086321162
      5059.49       1.0067137    0.0086345760
      5064.55      0.94501348    0.0086323802
      5069.61      0.88085620    0.0086346184
      5074.68      0.83704763    0.0086320776
      5079.76      0.78992050    0.0086345493
      5084.84      0.77363926    0.0086323515
      5089.92      0.74185158    0.0086346191
      5095.01      0.75433418    0.0086322279
      5100.11      0.76356593    0.0086340450
      5105.21      0.78405806    0.0085727833
      5110.31      0.81307632    0.0086341552
      5115.42      0.82734432    0.0085728872
      5120.54      0.87149355    0.0086337320
      5125.66      0.90816928    0.0085726785
      5130.79      0.93754597    0.0086334192
      5135.92      0.97233559    0.0085728337
      5141.05      0.98928689    0.0085737163
      5146.20      0.99809055    0.0085726872
      5151.34       1.0053515    0.0085730504
      5156.49       1.0028121    0.0085728609
      5161.65       1.0040759    0.0085730364
      5166.81       1.0051788    0.0085731984
      5171.98       1.0028851    0.0085726193
      5177.15      0.99581342    0.0085124488
      5182.33       1.0002195    0.0085727495
      5187.51      0.99338251    0.0085120915
      5192.70      0.99832584    0.0085143217
      5197.89      0.99245669    0.0085114780
      5203.09      0.99302160    0.0085130380
      5208.29      0.98962667    0.0085727950
      5213.50      0.99132361    0.0085123432
      5218.72       1.0074960    0.0085146212
      5223.93       1.0042271    0.0085114070
      5229.16      0.99646275    0.0085131808
      5234.39      0.98654246    0.0084544604
      5239.62      0.97901750    0.0085122669
      5244.86      0.97628168    0.0084545149
      5250.11      0.97468197    0.0084545567
      5255.36      0.98540471    0.0085128063
      5260.61       1.0043175    0.0084544516
      5265.87       1.0196138    0.0085118434
      5271.14       1.0403056    0.0084546914
      5276.41       1.0531881    0.0084543766
      5281.69       1.0818240    0.0084551414
      5286.97       1.1015068    0.0084546017
      5292.26       1.1317848    0.0084544292
      5297.55       1.1520456    0.0083963827
      5302.85       1.1675187    0.0084544410
      5308.15       1.1849679    0.0084544703
      5313.46       1.1887220    0.0083965263
      5318.77       1.1968953    0.0084544615
      5324.09       1.1898095    0.0084544879
      5329.42       1.1824130    0.0083964357
      5334.75       1.1640539    0.0084545747
      5340.08       1.1578604    0.0084545280
      5345.42       1.1394198    0.0083962964
      5350.77       1.1363844    0.0083979065
      5356.12       1.1406236    0.0083955011
      5361.48       1.1431045    0.0083961309
      5366.83       1.1416879    0.0083974023
      5372.20       1.1483863    0.0083408046
      5377.58       1.1447933    0.0083957012
      5382.95       1.1559319    0.0083968177
      5388.34       1.1715819    0.0083409682
      5393.72       1.1786270    0.0083408805
      5399.12       1.1791801    0.0083962371
      5404.52       1.1784880    0.0083973630
      5409.92       1.1795293    0.0083408355
      5415.33       1.1759619    0.0083409704
      5420.75       1.1702437    0.0083962920
      5426.17       1.1486723    0.0083410400
      5431.60       1.1177934    0.0083407351
      5437.03       1.0774277    0.0083410283
      5442.47       1.0617859    0.0082851746
      5447.91       1.0230930    0.0083411054
      5453.36       1.0240822    0.0083408207
      5458.81       1.0243521    0.0083410170
      5464.27       1.0282139    0.0082850878
      5469.73       1.0402819    0.0082861501
      5475.20       1.0578222    0.0083409649
      5480.68       1.0810644    0.0083408809
      5486.16       1.1280070    0.0082847598
      5491.65       1.1809495    0.0082854796
      5497.14       1.2324568    0.0082866029
      5502.64       1.2878575    0.0083406993
      5508.14       1.3397014    0.0082844033
      5513.65       1.3825580    0.0082848800
      5519.16       1.4110837    0.0082856530
      5524.68       1.4304723    0.0082867269
      5530.20       1.4311101    0.0082316905
      5535.73       1.4231207    0.0082317850
      5541.27       1.4057916    0.0082846813
      5546.81       1.3799615    0.0082852274
      5552.36       1.3315111    0.0082860049
      5557.91       1.3004909    0.0082317493
      5563.47       1.2483599    0.0082316961
      5569.04       1.1773322    0.0082318523
      5574.60       1.1114196    0.0082322222
      5580.18       1.0531121    0.0082325699
      5585.76       1.0121965    0.0082322237
      5591.35      0.97087632    0.0082318877
      5596.94      0.93339389    0.0082318049
      5602.53      0.90775776    0.0082317911
      5608.14      0.89520589    0.0082318245
      5613.75      0.88421074    0.0081777296
      5619.36      0.87527273    0.0081781179
      5624.98      0.86625434    0.0081786548
      5630.60      0.85822538    0.0081790733
      5636.23      0.85145671    0.0081797500
      5641.87      0.84148941    0.0082317275
      5647.51      0.83167300    0.0082318640
      5653.16      0.80451567    0.0081776127
      5658.82      0.76006773    0.0081775474
      5664.47      0.70970904    0.0081777239
      5670.14      0.66124688    0.0081779888
      5675.81      0.59904750    0.0081783553
      5681.48      0.54231760    0.0081785725
      5687.17      0.49320485    0.0081789843
      5692.85      0.44547135    0.0081270282
      5698.55      0.38380833    0.0081270731
      5704.25      0.34412691    0.0081269168
      5709.95      0.30813734    0.0081267470
      5715.66      0.28240587    0.0081267190
      5721.38      0.26321986    0.0081268730
      5727.10      0.25643990    0.0081269138
      5732.83      0.26164478    0.0081269470
      5738.56      0.27702406    0.0081275499
      5744.30      0.29944253    0.0081288798
      5750.04      0.32838052    0.0081300799
      5755.79      0.36399752    0.0080789978
      5761.55      0.39607705    0.0080937446
      5767.31      0.44118824    0.0081143669
      5773.08      0.50074019    0.0081363722
      5778.85      0.56072354    0.0081623746
      5784.63      0.62229431    0.0081985618
      5790.41      0.68458342    0.0082551884
      5796.21      0.75053174    0.0083448002
      5802.00      0.81249218    0.0084788587
      5807.81      0.87047358    0.0086662200
      5813.61      0.93697540    0.0089148256
      5819.43      0.98934143    0.0092303267
      5825.25       1.0490542    0.0096145176
      5831.07       1.1012173     0.010065631
      5836.90       1.1587568     0.010578174
      5842.74       1.2114417     0.011142073
      5848.58       1.2595231     0.011728275
      5854.43       1.2847933     0.012347706
      5860.29       1.3146667     0.012971283
      5866.15       1.3365575     0.013596984
      5872.01       1.3452575     0.014259032
      5877.89       1.3836655     0.014937899
      5883.76       1.3995791     0.015612266
      5889.65       1.3935964     0.016284579
      5895.54       1.3901882     0.016949529
      5901.43       1.3827582     0.017606030
      5907.34       1.3704687     0.018261493
      5913.24       1.3473793     0.018876789
      5919.16       1.3334509     0.019526264
      5925.08       1.3184326     0.020166981
      5931.00       1.3103644     0.020805889
      5936.93       1.3013385     0.021446052
      5942.87       1.2991894     0.022086211
      5948.81       1.2842984     0.022723903
      5954.76       1.2801156     0.023288849
      5960.72       1.2674101     0.023918798
      5966.68       1.2468506     0.024790215
      5972.64       1.2338383     0.025416805
      5978.62       1.2141609     0.026040090
      5984.60       1.1910608     0.026660951
      5990.58       1.1644117     0.027280237
      5996.57       1.1314077     0.027799917
      6002.57       1.0865563     0.028409265
      6008.57       1.0564833     0.029015298
      6014.58       1.0353132     0.029619615
      6020.60       1.0142494     0.030221232
      6026.62      0.98757504     0.030698079
      6032.65      0.96309060     0.031556458
      6038.68      0.93661150     0.032144142
      6044.72      0.91074716     0.032728923
      6050.76      0.88426291     0.033310001
      6056.81      0.85424970     0.033749565
      6062.87      0.83852792     0.034315845
      6068.93      0.82748935     0.034879557
