# starting wavelength =        3223.4200
# ending wavelength =        8382.0800
# O2 telluric scale =        0
# O2 telluric shift =        0
# H2O telluric scale =        0
# H2O telluric shift =        0
      3223.51      0.19079182     0.020822318
      3226.73      0.20336921     0.016876105
      3229.96      0.21650319     0.014373722
      3233.19      0.22627190     0.012442832
      3236.42      0.23182412     0.011370870
      3239.66      0.23536580     0.010118085
      3242.90      0.23696576    0.0088708074
      3246.14      0.23834253    0.0081717878
      3249.39      0.23967916    0.0076275924
      3252.64      0.24093368    0.0073165844
      3255.89      0.23724601    0.0069497787
      3259.14      0.23777084    0.0066075019
      3262.40      0.24280939    0.0063843780
      3265.67      0.24420439    0.0061954651
      3268.93      0.24873290    0.0060908713
      3272.20      0.25258411    0.0059446645
      3275.47      0.25880708    0.0058156151
      3278.75      0.26272460    0.0057339079
      3282.03      0.26806182    0.0056341008
      3285.31      0.27036928    0.0056302802
      3288.60      0.27180834    0.0055825167
      3291.88      0.27594633    0.0055801430
      3295.18      0.28145673    0.0056215096
      3298.47      0.28722577    0.0056182249
      3301.77      0.29292618    0.0056170462
      3305.07      0.29619338    0.0056128932
      3308.38      0.29878578    0.0056093574
      3311.69      0.30579810    0.0056510072
      3315.00      0.31040768    0.0056487907
      3318.31      0.31635566    0.0056005952
      3321.63      0.32102468    0.0056418624
      3324.95      0.32770022    0.0056393173
      3328.28      0.33057119    0.0056373908
      3331.61      0.33696792    0.0056794973
      3334.94      0.34090767    0.0056299258
      3338.27      0.34388691    0.0056745491
      3341.61      0.34467320    0.0056706070
      3344.95      0.34830573    0.0056673080
      3348.30      0.34803054    0.0057110042
      3351.65      0.35132594    0.0056619547
      3355.00      0.35144978    0.0056583127
      3358.35      0.35391074    0.0057014349
      3361.71      0.35680660    0.0056989386
      3365.07      0.36148487    0.0056969680
      3368.44      0.36408298    0.0056922238
      3371.81      0.36671138    0.0056891515
      3375.18      0.37147447    0.0056866801
      3378.56      0.37794244    0.0057319845
      3381.94      0.38035526    0.0057284964
      3385.32      0.38331550    0.0057254999
      3388.70      0.38513466    0.0057236452
      3392.09      0.39170114    0.0057195432
      3395.48      0.39490538    0.0057160861
      3398.88      0.39754200    0.0057613740
      3402.28      0.39925058    0.0057589300
      3405.68      0.40170358    0.0057570390
      3409.09      0.40294392    0.0058028399
      3412.49      0.40114577    0.0057487048
      3415.91      0.40233458    0.0057462263
      3419.32      0.40123999    0.0057939836
      3422.74      0.39984260    0.0057902424
      3426.17      0.40095833    0.0057870409
      3429.59      0.40258119    0.0058349314
      3433.02      0.40119651    0.0057814385
      3436.45      0.39918998    0.0057775535
      3439.89      0.39681712    0.0058246734
      3443.33      0.39543690    0.0058217413
      3446.78      0.39079678    0.0058193954
      3450.22      0.38869109    0.0058691506
      3453.67      0.38740187    0.0058654566
      3457.13      0.38510877    0.0058622683
      3460.58      0.38355855    0.0058610324
      3464.04      0.37835521    0.0058565624
      3467.51      0.37906404    0.0058525879
      3470.98      0.37947788    0.0058490962
      3474.45      0.37810955    0.0058989299
      3477.92      0.37321589    0.0058963444
      3481.40      0.36808053    0.0058942034
      3484.88      0.36599020    0.0059455001
      3488.37      0.36567674    0.0059419962
      3491.86      0.36544200    0.0058825292
      3495.35      0.36832764    0.0058799029
      3498.84      0.36909648    0.0059330367
      3502.34      0.36917584    0.0059290715
      3505.84      0.37190499    0.0059254299
      3509.35      0.37201531    0.0059778205
      3512.86      0.37424515    0.0059749565
      3516.37      0.37736586    0.0059726563
      3519.89      0.37840198    0.0059706737
      3523.41      0.37933730    0.0060236597
      3526.93      0.37865715    0.0060202920
      3530.46      0.37704836    0.0059578588
      3533.99      0.37835818    0.0060152254
      3537.53      0.38187115    0.0060108140
      3541.06      0.38850001    0.0060067633
      3544.60      0.39026535    0.0060032540
      3548.15      0.39217404    0.0060583039
      3551.70      0.39539375    0.0060554156
      3555.25      0.39424539    0.0060529310
      3558.80      0.39600082    0.0060507991
      3562.36      0.39977239    0.0061076664
      3565.92      0.40074265    0.0061040374
      3569.49      0.40330440    0.0061005936
      3573.06      0.40348300    0.0061592588
      3576.64      0.40659532    0.0061565105
      3580.21      0.41247368    0.0061542526
      3583.79      0.41595089    0.0061522133
      3587.38      0.41676070    0.0061444935
      3590.96      0.42195672    0.0061409780
      3594.55      0.42752655    0.0061377534
      3598.15      0.42919866    0.0061347498
      3601.75      0.42751487    0.0061990385
      3605.35      0.42731673    0.0061945438
      3608.96      0.42617643    0.0061903869
      3612.56      0.42604672    0.0061865566
      3616.18      0.42663655    0.0062478942
      3619.79      0.42514566    0.0062445625
      3623.41      0.42974747    0.0062414926
      3627.04      0.43769660    0.0062386894
      3630.66      0.44180336    0.0062361766
      3634.29      0.44427833    0.0063016021
      3637.93      0.45021868    0.0062975707
      3641.57      0.45310051    0.0062936777
      3645.21      0.45622410    0.0062898868
      3648.86      0.46215725    0.0063553883
      3652.50      0.46589005    0.0063524095
      3656.16      0.47156846    0.0063494760
      3659.81      0.47835165    0.0063467702
      3663.47      0.48094034    0.0064175662
      3667.14      0.48601064    0.0064132787
      3670.80      0.49025712    0.0064090567
      3674.48      0.49802154    0.0064050490
      3678.15      0.50153233    0.0064014779
      3681.83      0.50051168    0.0064712956
      3685.51      0.50407680    0.0064678999
      3689.20      0.50377647    0.0064648809
      3692.88      0.50472249    0.0064618665
      3696.58      0.50298305    0.0064588110
      3700.27      0.50076545    0.0065343613
      3703.98      0.50073653    0.0065299642
      3707.68      0.49947675    0.0065258362
      3711.39      0.49436317    0.0065218882
      3715.10      0.49376080    0.0065960397
      3718.81      0.49108715    0.0065923647
      3722.53      0.48835209    0.0065886704
      3726.26      0.49106045    0.0065851214
      3729.98      0.49221760    0.0065816454
      3733.71      0.49921266    0.0066656803
      3737.45      0.50231612    0.0067463902
      3741.18      0.50676783    0.0067434064
      3744.93      0.51351898    0.0066542421
      3748.67      0.52289301    0.0066496260
      3752.42      0.52853878    0.0066453512
      3756.17      0.53834684    0.0066409977
      3759.93      0.54523387    0.0066367705
      3763.69      0.55058194    0.0066327328
      3767.45      0.55838959    0.0066290103
      3771.22      0.55803617    0.0066251512
      3774.99      0.55781381    0.0066211538
      3778.77      0.55348854    0.0066174840
      3782.54      0.55461094    0.0066136405
      3786.33      0.55731303    0.0066098658
      3790.11      0.56162688    0.0066062742
      3793.90      0.56424633    0.0066029133
      3797.70      0.56895693    0.0065129092
      3801.50      0.57407834    0.0065094003
      3805.30      0.57675801    0.0065059002
      3809.10      0.57879412    0.0065022587
      3812.91      0.58383794    0.0064986312
      3816.73      0.58859046    0.0064952876
      3820.54      0.59596952    0.0064919454
      3824.36      0.60319374    0.0064884442
      3828.19      0.61042155    0.0064849485
      3832.02      0.61126595    0.0064814429
      3835.85      0.61797144    0.0064777789
      3839.68      0.62335612    0.0064740862
      3843.52      0.61914052    0.0064706711
      3847.37      0.61701819    0.0064672342
      3851.22      0.61601984    0.0064635754
      3855.07      0.61993668    0.0064599640
      3858.92      0.62478065    0.0064563030
      3862.78      0.62874058    0.0064524503
      3866.64      0.62534927    0.0064485913
      3870.51      0.62493899    0.0064449941
      3874.38      0.62645386    0.0064413382
      3878.26      0.62595458    0.0064375093
      3882.13      0.63018656    0.0064336589
      3886.02      0.63458454    0.0064297988
      3889.90      0.63524715    0.0064257305
      3893.79      0.64613453    0.0064216458
      3897.69      0.65100681    0.0064178534
      3901.59      0.65300733    0.0064138813
      3905.49      0.65119104    0.0064099249
      3909.39      0.65348883    0.0064059671
      3913.30      0.65214904    0.0064019615
      3917.22      0.64513105    0.0063977520
      3921.13      0.64918861    0.0063935236
      3925.06      0.65587459    0.0063895563
      3928.98      0.66104314    0.0063854706
      3932.91      0.66553797    0.0063813954
      3936.84      0.66702326    0.0063773011
      3940.78      0.66531148    0.0063732326
      3944.72      0.66218477    0.0063689748
      3948.67      0.66904992    0.0063647331
      3952.61      0.66855694    0.0063607755
      3956.57      0.67001692    0.0062814969
      3960.52      0.67484260    0.0062776144
      3964.48      0.67852746    0.0062738290
      3968.45      0.68384406    0.0062698656
      3972.42      0.68245375    0.0062659994
      3976.39      0.68220025    0.0062622157
      3980.37      0.67628092    0.0062583069
      3984.35      0.67430567    0.0062546882
      3988.33      0.67717450    0.0062511614
      3992.32      0.68171033    0.0062477354
      3996.31      0.69115422    0.0062442207
      4000.31      0.69534659    0.0062408425
      4004.31      0.69406121    0.0062375968
      4008.31      0.69354884    0.0061583048
      4012.32      0.69403971    0.0061540427
      4016.33      0.69239824    0.0061497250
      4020.35      0.68733788    0.0061456964
      4024.37      0.68710037    0.0061416244
      4028.40      0.68278296    0.0061374825
      4032.42      0.68092088    0.0061336929
      4036.46      0.68328699    0.0062068983
      4040.50      0.68278191    0.0062034197
      4044.54      0.68367708    0.0061998942
      4048.58      0.68276130    0.0061248828
      4052.63      0.68218621    0.0061201160
      4056.68      0.67912866    0.0061153519
      4060.74      0.68260231    0.0061105895
      4064.80      0.68483226    0.0061061714
      4068.86      0.69248048    0.0061020186
      4072.93      0.69379310    0.0060980357
      4077.01      0.69607355    0.0060941149
      4081.08      0.69986158    0.0060906032
      4085.17      0.70559714    0.0060183481
      4089.25      0.71009957    0.0060890410
      4093.34      0.71308610    0.0060840579
      4097.43      0.71436400    0.0060791076
      4101.53      0.71324025    0.0060745999
      4105.63      0.71429151    0.0060701666
      4109.74      0.71679512    0.0060658751
      4113.85      0.72304147    0.0059935353
      4117.96      0.72767099    0.0059899573
      4122.08      0.73228301    0.0059868165
      4126.20      0.73772098    0.0059838509
      4130.33      0.74035824    0.0060508661
      4134.46      0.74229793    0.0060462385
      4138.59      0.74121140    0.0060418262
      4142.73      0.73768307    0.0059694343
      4146.88      0.74465599    0.0059657140
      4151.02      0.74547203    0.0059623632
      4155.18      0.74960412    0.0059595105
      4159.33      0.75412212    0.0059569040
      4163.49      0.75992292    0.0059547076
      4167.65      0.76272113    0.0059492768
      4171.82      0.76599883    0.0059452385
      4175.99      0.76855687    0.0059416485
      4180.17      0.76835654    0.0059385064
      4184.35      0.76786896    0.0059358162
      4188.54      0.77337249    0.0058633858
      4192.72      0.77614889    0.0058588617
      4196.92      0.77594065    0.0059248138
      4201.11      0.77688902    0.0059209964
      4205.31      0.78075454    0.0059179115
      4209.52      0.77687485    0.0059153231
      4213.73      0.77498494    0.0058430945
      4217.94      0.77312048    0.0058386612
      4222.16      0.77168880    0.0058345982
      4226.38      0.77676695    0.0059009363
      4230.61      0.77763832    0.0058978490
      4234.84      0.78092933    0.0058272752
      4239.08      0.78829040    0.0058225388
      4243.32      0.79393229    0.0058182331
      4247.56      0.79626010    0.0058145672
      4251.81      0.80250524    0.0058168751
      4256.06      0.80245062    0.0058112466
      4260.32      0.80738136    0.0058060900
      4264.58      0.80942028    0.0058017742
      4268.84      0.81243978    0.0057980841
      4273.11      0.80849244    0.0058005323
      4277.38      0.81138867    0.0057948784
      4281.66      0.81477804    0.0057897679
      4285.94      0.82188913    0.0057854011
      4290.23      0.82684774    0.0057192644
      4294.52      0.83459269    0.0057165952
      4298.81      0.84224996    0.0057780247
      4303.11      0.84960438    0.0057731355
      4307.42      0.86034031    0.0057066388
      4311.72      0.86665120    0.0057034950
      4316.04      0.87755684    0.0057009930
      4320.35      0.89043130    0.0057608540
      4324.67      0.89700987    0.0056942668
      4329.00      0.90734857    0.0056907332
      4333.33      0.91617709    0.0056881962
      4337.66      0.92284469    0.0057486618
      4342.00      0.93351026    0.0056818713
      4346.34      0.94063092    0.0056782240
      4350.69      0.94817554    0.0056754364
      4355.04      0.95388464    0.0056737370
      4359.39      0.96723308    0.0056695489
      4363.75      0.97256331    0.0056658688
      4368.12      0.98080852    0.0056630465
      4372.48      0.98746170    0.0056613597
      4376.86      0.99524261    0.0056570186
      4381.23       1.0002043    0.0056535606
      4385.61       1.0008968    0.0056510245
      4390.00      0.99945513    0.0055851617
      4394.39      0.99570940    0.0056445888
      4398.79      0.99006144    0.0056413344
      4403.18      0.98316305    0.0056390402
      4407.59      0.97408505    0.0055726837
      4412.00      0.96695959    0.0056324311
      4416.41      0.95912295    0.0056294552
      4420.82      0.95478867    0.0055648955
      4425.25      0.95192918    0.0055602845
      4429.67      0.94947057    0.0056203455
      4434.10      0.94804363    0.0055573302
      4438.54      0.94830141    0.0055520897
      4442.97      0.95213393    0.0055480436
      4447.42      0.95902393    0.0055497835
      4451.86      0.96415333    0.0055440430
      4456.32      0.96939953    0.0055394533
      4460.77      0.97382250    0.0054789562
      4465.24      0.97519188    0.0055361388
      4469.70      0.97485174    0.0055312909
      4474.17      0.97547994    0.0054704742
      4478.65      0.96907028    0.0055283517
      4483.12      0.96447524    0.0055230585
      4487.61      0.96093582    0.0054621493
      4492.09      0.95979345    0.0054596930
      4496.59      0.95975646    0.0055148480
      4501.08      0.96005223    0.0054537221
      4505.58      0.96066205    0.0054511442
      4510.09      0.96156013    0.0055064661
      4514.60      0.96600803    0.0054453716
      4519.12      0.96839535    0.0054428609
      4523.63      0.97050005    0.0054982475
      4528.16      0.97230000    0.0054371951
      4532.69      0.97623298    0.0054346521
      4537.22      0.97283111    0.0054898741
      4541.76      0.97412373    0.0054290868
      4546.30      0.97383939    0.0054266547
      4550.85      0.97488287    0.0053659959
      4555.40      0.97184274    0.0054209175
      4559.95      0.97077241    0.0054187664
      4564.51      0.96539280    0.0053578071
      4569.08      0.96508461    0.0054129907
      4573.65      0.96353090    0.0054111541
      4578.22      0.96341256    0.0053496667
      4582.80      0.96060807    0.0054050890
      4587.38      0.95631580    0.0053458120
      4591.97      0.95290075    0.0054000230
      4596.56      0.95007262    0.0053974806
      4601.16      0.94936155    0.0053374931
      4605.76      0.94548337    0.0053921992
      4610.37      0.93748084    0.0053341935
      4614.98      0.93408683    0.0053292746
      4619.59      0.92693298    0.0053845474
      4624.21      0.92062413    0.0053255429
      4628.84      0.91480554    0.0053214134
      4633.47      0.90684669    0.0053223120
      4638.10      0.90400812    0.0053171062
      4642.74      0.89899033    0.0053137637
      4647.38      0.89135006    0.0053133766
      4652.03      0.88790788    0.0053091100
      4656.68      0.89173522    0.0053100493
      4661.34      0.88776030    0.0053048997
      4666.00      0.88512329    0.0052490336
      4670.67      0.88554424    0.0053011561
      4675.33      0.88514019    0.0052969745
      4680.01      0.88464646    0.0052978100
      4684.69      0.88575938    0.0052928363
      4689.38      0.88730171    0.0052374405
      4694.07      0.88601598    0.0052889302
      4698.76      0.88107610    0.0052328023
      4703.46      0.88199788    0.0052852671
      4708.16      0.87769176    0.0052284038
      4712.87      0.87774222    0.0052263074
      4717.58      0.87256338    0.0052766689
      4722.30      0.87224393    0.0052215388
      4727.03      0.87089628    0.0052727945
      4731.75      0.86411046    0.0052169846
      4736.48      0.85941651    0.0052159084
      4741.22      0.86251262    0.0052126907
      4745.96      0.86180671    0.0052110670
      4750.71      0.85856974    0.0052085166
      4755.46      0.86165615    0.0052064282
      4760.22      0.86241683    0.0052045805
      4764.97      0.86381607    0.0052020226
      4769.74      0.86758334    0.0051465600
      4774.51      0.87181791    0.0051976844
      4779.29      0.87566547    0.0051427441
      4784.07      0.87802364    0.0051934533
      4788.85      0.88353576    0.0051390764
      4793.64      0.89234492    0.0051894451
      4798.43      0.89984675    0.0051352766
      4803.23      0.91200232    0.0051853408
      4808.03      0.91883120    0.0051315304
      4812.84      0.92072867    0.0051275790
      4817.66      0.92154101    0.0051277928
      4822.48      0.92099852    0.0051237578
      4827.30      0.91974334    0.0051241027
      4832.12      0.91949508    0.0051199400
      4836.96      0.91576278    0.0051204246
      4841.79      0.91511030    0.0051162183
      4846.63      0.90935712    0.0051167226
      4851.48      0.90405587    0.0051123580
      4856.33      0.90020014    0.0051128259
      4861.19      0.89863708    0.0051085949
      4866.05      0.89830282    0.0051089920
      4870.92      0.89963032    0.0051049951
      4875.79      0.90027015    0.0051052449
      4880.66      0.90828353    0.0050526399
      4885.55      0.91661585    0.0051013965
      4890.43      0.92919943    0.0050491239
      4895.32      0.93971320    0.0050975986
      4900.22      0.94754697    0.0050457313
      4905.12      0.95697749    0.0050939061
      4910.02      0.97016948    0.0050424138
      4914.94      0.97992569    0.0050901893
      4919.85      0.98923146    0.0050391711
      4924.77       1.0011931    0.0050381115
      4929.70       1.0122001    0.0050361219
      4934.62       1.0218079    0.0050345663
      4939.56       1.0296191    0.0050330968
      4944.50       1.0356360    0.0050311809
      4949.44       1.0390507    0.0050302614
