# starting wavelength =        3399.1900
# ending wavelength =        8579.1500
# O2 telluric scale =        0
# O2 telluric shift =        0
# H2O telluric scale =        0
# H2O telluric shift =        0
      3402.28     0.045162489    0.0030838087
      3405.68     0.049152000    0.0026256888
      3409.09     0.053292147    0.0023681790
      3412.49     0.057209320    0.0020693334
      3415.91     0.061203548    0.0018383284
      3419.32     0.064675691    0.0016589518
      3422.74     0.067769221    0.0014812655
      3426.17     0.070319448    0.0013806423
      3429.59     0.072879447    0.0013018611
      3433.02     0.074764169    0.0012561137
      3436.45     0.076230576    0.0012026582
      3439.89     0.076982539    0.0011593054
      3443.33     0.077679284    0.0011217883
      3446.78     0.077727433    0.0010936808
      3450.22     0.078391603    0.0010693191
      3453.67     0.079088327    0.0010561248
      3457.13     0.079139771    0.0010366159
      3460.58     0.078953801    0.0010191571
      3464.04     0.078687638    0.0010034499
      3467.51     0.077186610    0.0010113501
      3470.98     0.077874075    0.0010117934
      3474.45     0.077687752    0.0010124553
      3477.92     0.076037570    0.0010203110
      3481.40     0.074470142    0.0010215162
      3484.88     0.074066199    0.0010231284
      3488.37     0.072845511    0.0010320478
      3491.86     0.072069209    0.0010341622
      3495.35     0.071102375    0.0010281843
      3498.84     0.068908455    0.0010312445
      3502.34     0.067683718    0.0010415332
      3505.84     0.068533514    0.0010453253
      3509.35     0.068559069    0.0010496763
      3512.86     0.068835899    0.0010545812
      3516.37     0.069341640    0.0010665692
      3519.89     0.069962846    0.0010724859
      3523.41     0.069244367    0.0010788501
      3526.93     0.070055918    0.0010917495
      3530.46     0.070774663    0.0010882370
      3533.99     0.071835611    0.0010952401
      3537.53     0.072726669    0.0011024784
      3541.06     0.073899891    0.0011165994
      3544.60     0.073911556    0.0011239165
      3548.15     0.074644829    0.0011313046
      3551.70     0.075337139    0.0011387213
      3555.25     0.076149881    0.0011533012
      3558.80     0.076764519    0.0011609200
      3562.36     0.076878272    0.0011687912
      3565.92     0.076944038    0.0011767990
      3569.49     0.077479087    0.0011919988
      3573.06     0.077796998    0.0011998857
      3576.64     0.077903493    0.0012077902
      3580.21     0.077620898    0.0012117871
      3583.79     0.077580215    0.0012195161
      3587.38     0.076907062    0.0012272651
      3590.96     0.076897358    0.0012350478
      3594.55     0.076991078    0.0012428721
      3598.15     0.076308159    0.0012588866
      3601.75     0.075733785    0.0012668215
      3605.35     0.076073499    0.0012748042
      3608.96     0.075084429    0.0012828289
      3612.56     0.074200166    0.0012996286
      3616.18     0.073133487    0.0013074942
      3619.79     0.071793528    0.0013154123
      3623.41     0.070462845    0.0013233445
      3627.04     0.068828707    0.0013404323
      3630.66     0.067919829    0.0013484910
      3634.29     0.066749719    0.0013566049
      3637.93     0.065010293    0.0013647255
      3641.57     0.064422793    0.0013826051
      3645.21     0.064266007    0.0013905800
      3648.86     0.063670215    0.0013985800
      3652.50     0.063151767    0.0014065858
      3656.16     0.062667466    0.0014146226
      3659.81     0.062397220    0.0014329902
      3663.47     0.062288188    0.0014411748
      3667.14     0.062421756    0.0014493596
      3670.80     0.061942300    0.0014575941
      3674.48     0.061314652    0.0014658278
      3678.15     0.061372384    0.0014847909
      3681.83     0.061417518    0.0014928717
      3685.51     0.061831185    0.0015009847
      3689.20     0.060675216    0.0015091206
      3692.88     0.060577627    0.0015287953
      3696.58     0.058906304    0.0015370530
      3700.27     0.057393005    0.0015453247
      3703.98     0.055787381    0.0015535887
      3707.68     0.053173004    0.0015618775
      3711.39     0.051265619    0.0015701772
      3715.10     0.049323047    0.0015908120
      3718.81     0.047904757    0.0015989762
      3722.53     0.046244165    0.0016071871
      3726.26     0.044303749    0.0016153857
      3729.98     0.043556987    0.0016235692
      3733.71     0.041918844    0.0016448398
      3737.45     0.040935707    0.0016531133
      3741.18     0.039763428    0.0016614409
      3744.93     0.039558960    0.0016697578
      3748.67     0.039320221    0.0016781206
      3752.42     0.039136016    0.0017012527
      3756.17     0.038932916    0.0017094592
      3759.93     0.038462598    0.0017176740
      3763.69     0.039675591    0.0017455649
      3767.45     0.040812396    0.0017541157
      3771.22     0.042081667    0.0017626403
      3774.99     0.043053066    0.0017861554
      3778.77     0.043797683    0.0017945777
      3782.54     0.044139192    0.0018030062
      3786.33     0.045188510    0.0018114328
      3790.11     0.046020959    0.0018198619
      3793.90     0.047147294    0.0018283059
      3797.70     0.049362380    0.0018529631
      3801.50     0.051912318    0.0018614500
      3805.30     0.053991844    0.0018700000
      3809.10     0.057615080    0.0018785114
      3812.91     0.060548845    0.0018870054
      3816.73     0.063783586    0.0019186355
      3820.54     0.067895497    0.0019272360
      3824.36     0.072350060    0.0019538034
      3828.19     0.076042244    0.0019624963
      3832.02     0.080700255    0.0019711468
      3835.85     0.085553887    0.0019798058
      3839.68     0.091275743    0.0019884426
      3843.52     0.098268292    0.0019971234
      3847.37      0.10458436    0.0020264960
      3851.22      0.11162227    0.0020598339
      3855.07      0.11930990    0.0020686862
      3858.92      0.12722341    0.0020774765
      3862.78      0.13459485    0.0020862606
      3866.64      0.14202667    0.0020950534
      3870.51      0.14981149    0.0021038194
      3874.38      0.15760013    0.0021125775
      3878.26      0.16504345    0.0021442220
      3882.13      0.17138803    0.0021530940
      3886.02      0.17820860    0.0021893318
      3889.90      0.18427894    0.0021982301
      3893.79      0.18893354    0.0022070544
      3897.69      0.19309668    0.0022159415
      3901.59      0.19782390    0.0022248839
      3905.49      0.20323039    0.0022337541
      3909.39      0.20733247    0.0022687535
      3913.30      0.21121726    0.0023071865
      3917.22      0.21472676    0.0023162118
      3921.13      0.21831024    0.0023252049
      3925.06      0.22314876    0.0023342286
      3928.98      0.22734292    0.0023432606
      3932.91      0.23404089    0.0023522852
      3936.84      0.23938485    0.0023613139
      3940.78      0.24664326    0.0023447708
      3944.72      0.25412226    0.0023536682
      3948.67      0.26124051    0.0023625015
      3952.61      0.26960630    0.0023714158
      3956.57      0.27913685    0.0023803370
      3960.52      0.28848644    0.0023892899
      3964.48      0.29812725    0.0023981773
      3968.45      0.30705018    0.0024070857
      3972.42      0.31417220    0.0024160266
      3976.39      0.32216038    0.0024249041
      3980.37      0.32890651    0.0024338919
      3984.35      0.33457077    0.0024429049
      3988.33      0.33949270    0.0024519546
      3992.32      0.34329729    0.0024609701
      3996.31      0.34670205    0.0024700273
      4000.31      0.35044529    0.0024506827
      4004.31      0.35256458    0.0024591612
      4008.31      0.35416664    0.0024676667
      4012.32      0.35436435    0.0024762288
      4016.33      0.35445278    0.0024849003
      4020.35      0.35462386    0.0025275002
      4024.37      0.35285405    0.0025362246
      4028.40      0.35245485    0.0025449826
      4032.42      0.35170743    0.0025537925
      4036.46      0.34721240    0.0025627439
      4040.50      0.34330800    0.0025440668
      4044.54      0.33715311    0.0025522129
      4048.58      0.32921009    0.0025604975
      4052.63      0.32182283    0.0025687656
      4056.68      0.31397890    0.0025770021
      4060.74      0.30838723    0.0025853924
      4064.80      0.30347435    0.0025938903
      4068.86      0.29845417    0.0026024427
      4072.93      0.29409813    0.0026110263
      4077.01      0.29260106    0.0025926311
      4081.08      0.29156400    0.0026358267
      4085.17      0.29086360    0.0026437898
      4089.25      0.29004272    0.0026517589
      4093.34      0.28884509    0.0026598933
      4097.43      0.28874079    0.0026681954
      4101.53      0.28834090    0.0026765064
      4105.63      0.28794848    0.0026570276
      4109.74      0.28694757    0.0026654373
      4113.85      0.28472347    0.0026739525
      4117.96      0.28153583    0.0026826029
      4122.08      0.27701181    0.0027256065
      4126.20      0.27413486    0.0027335346
      4130.33      0.27208822    0.0027416794
      4134.46      0.27132333    0.0027212626
      4138.59      0.27012231    0.0027295087
      4142.73      0.26979009    0.0027378962
      4146.88      0.27029946    0.0027464336
      4151.02      0.26948456    0.0027551898
      4155.18      0.26893895    0.0027640624
      4159.33      0.26696251    0.0027769968
      4163.49      0.26273828    0.0027850248
      4167.65      0.25924048    0.0027932306
      4171.82      0.25375566    0.0028015542
      4175.99      0.24970938    0.0028101357
      4180.17      0.24650332    0.0028189284
      4184.35      0.24268682    0.0027963751
      4188.54      0.23906932    0.0028402831
      4192.72      0.23760015    0.0028483236
      4196.92      0.23524214    0.0028565775
      4201.11      0.23453450    0.0028650571
      4205.31      0.23464910    0.0028431223
      4209.52      0.23652252    0.0028506325
      4213.73      0.23851129    0.0028583952
      4217.94      0.24183776    0.0029031596
      4222.16      0.24556561    0.0029114470
      4226.38      0.24908858    0.0029199314
      4230.61      0.25234330    0.0028969368
      4234.84      0.25485645    0.0029044593
      4239.08      0.25753862    0.0029121886
      4243.32      0.25925023    0.0029577016
      4247.56      0.26041535    0.0029358443
      4251.81      0.25955851    0.0029428738
      4256.06      0.26032704    0.0029501719
      4260.32      0.26043078    0.0029577893
      4264.58      0.25946761    0.0029657175
      4268.84      0.25703560    0.0029814932
      4273.11      0.25464978    0.0029884428
      4277.38      0.25106475    0.0029956541
      4281.66      0.24774391    0.0030032349
      4285.94      0.24456487    0.0029810292
      4290.23      0.24226078    0.0029892674
      4294.52      0.23889653    0.0030335714
      4298.81      0.23436873    0.0030408160
      4303.11      0.23168355    0.0030178544
      4307.42      0.22999789    0.0030258679
      4311.72      0.22882862    0.0030342025
      4316.04      0.22722916    0.0030782774
      4320.35      0.22713529    0.0030547188
      4324.67      0.22715292    0.0030624546
      4329.00      0.22872088    0.0030707062
      4333.33      0.22999266    0.0031155716
      4337.66      0.23201744    0.0030913259
      4342.00      0.23545858    0.0030989939
      4346.34      0.23876083    0.0031070669
      4350.69      0.24247396    0.0031157233
      4355.04      0.24805443    0.0031279495
      4359.39      0.25397615    0.0031354910
      4363.75      0.25909736    0.0031434896
      4368.12      0.26296332    0.0031521000
      4372.48      0.26648749    0.0031642341
      4376.86      0.26864876    0.0031718330
      4381.23      0.27093582    0.0031799323
      4385.61      0.27366008    0.0031549051
      4390.00      0.27433539    0.0031618876
      4394.39      0.27481737    0.0032080491
      4398.79      0.27223272    0.0032162219
      4403.18      0.27112734    0.0031904350
      4407.59      0.26999310    0.0031975286
      4412.00      0.27002835    0.0032442602
      4416.41      0.26881533    0.0032191580
      4420.82      0.26814165    0.0032258145
      4425.25      0.26844031    0.0032724316
      4429.67      0.26974824    0.0032479209
      4434.10      0.27237881    0.0032541608
      4438.54      0.27602518    0.0032610948
      4442.97      0.28138425    0.0033085151
      4447.42      0.28903702    0.0032825373
      4451.86      0.29589399    0.0032890617
      4456.32      0.30590389    0.0032963972
      4460.77      0.31778703    0.0033108535
      4465.24      0.32920525    0.0033171395
      4469.70      0.34142569    0.0033242182
      4474.17      0.35517507    0.0033391482
      4478.65      0.36893647    0.0033451087
      4483.12      0.38049249    0.0033519832
      4487.61      0.39552435    0.0033271153
      4492.09      0.40912189    0.0033730004
      4496.59      0.42165423    0.0033796603
      4501.08      0.43260439    0.0033543687
      4505.58      0.44213892    0.0034007417
      4510.09      0.45059132    0.0034072319
      4514.60      0.45848663    0.0033816135
      4519.12      0.46774094    0.0034283574
      4523.63      0.47691898    0.0034015114
      4528.16      0.48502320    0.0034088577
      4532.69      0.49357430    0.0034171747
      4537.22      0.49968705    0.0034286547
      4541.76      0.50840399    0.0034360297
      4546.30      0.51684286    0.0034443851
      4550.85      0.52503706    0.0034557245
      4555.40      0.53455908    0.0034631914
      4559.95      0.54427286    0.0034717230
      4564.51      0.55161564    0.0034827356
      4569.08      0.56014144    0.0034903371
      4573.65      0.56998241    0.0034626711
      4578.22      0.57731077    0.0035096228
      4582.80      0.58203656    0.0035174977
      4587.38      0.58926533    0.0034890918
      4591.97      0.59494613    0.0035366061
      4596.56      0.60108598    0.0035093567
      4601.16      0.60702017    0.0035154816
      4605.76      0.61434365    0.0035636412
      4610.37      0.61872285    0.0035353799
      4614.98      0.62245785    0.0035829997
      4619.59      0.62589786    0.0035557843
      4624.21      0.62806754    0.0035615904
      4628.84      0.62983596    0.0036098848
      4633.47      0.63107310    0.0035814931
      4638.10      0.63044379    0.0035876914
      4642.74      0.62832806    0.0036017002
      4647.38      0.62560168    0.0036072510
      4652.03      0.62296290    0.0035803787
      4656.68      0.62225603    0.0036271263
      4661.34      0.62045498    0.0036332894
      4666.00      0.61765375    0.0036472588
      4670.67      0.61368372    0.0036526803
      4675.33      0.61123230    0.0036255225
      4680.01      0.60844635    0.0036724106
      4684.69      0.60410091    0.0036442982
      4689.38      0.59873541    0.0036922629
      4694.07      0.59223240    0.0036979398
      4698.76      0.58484541    0.0036704869
      4703.46      0.57922356    0.0037173356
      4708.16      0.56906675    0.0036892147
      4712.87      0.55960527    0.0037368235
      4717.58      0.54917897    0.0037079601
      4722.30      0.53917665    0.0037156609
      4727.03      0.52753349    0.0037268916
      4731.75      0.51732172    0.0037340838
      4736.48      0.50739356    0.0037458929
      4741.22      0.49852262    0.0037526756
      4745.96      0.48960562    0.0037237070
      4750.71      0.48153975    0.0037713641
      4755.46      0.47321572    0.0037794881
      4760.22      0.46319517    0.0037901119
      4764.97      0.45484803    0.0037978377
      4769.74      0.44707194    0.0038088329
      4774.51      0.43736360    0.0038162172
      4779.29      0.42733405    0.0038275486
      4784.07      0.41821626    0.0038347778
      4788.85      0.40995768    0.0038042569
      4793.64      0.40091954    0.0038532131
      4798.43      0.39011486    0.0038227298
      4803.23      0.38134775    0.0038717823
      4808.03      0.37204029    0.0038412720
      4812.84      0.36487576    0.0038903212
      4817.66      0.35996656    0.0038598515
      4822.48      0.35529282    0.0039089608
      4827.30      0.35277331    0.0038782699
      4832.12      0.34974812    0.0039274495
      4836.96      0.34905784    0.0038966400
      4841.79      0.34925811    0.0039028381
      4846.63      0.35055907    0.0039149593
      4851.48      0.35264632    0.0038857849
      4856.33      0.35857665    0.0039332438
      4861.19      0.36611640    0.0039039597
      4866.05      0.37425771    0.0039514758
      4870.92      0.38473532    0.0039220900
      4875.79      0.39685121    0.0039696241
      4880.66      0.41155111    0.0039401669
      4885.55      0.42830894    0.0039877441
      4890.43      0.44826829    0.0039582413
      4895.32      0.46968533    0.0040058449
      4900.22      0.49445634    0.0039764603
      4905.12      0.52202527    0.0039876194
      4910.02      0.54809406    0.0039945942
      4914.94      0.57562658    0.0040055041
      4919.85      0.60184556    0.0040128137
      4924.77      0.62764485    0.0040234734
      4929.70      0.65173622    0.0040311307
      4934.62      0.67655781    0.0040413692
      4939.56      0.69787109    0.0040494012
      4944.50      0.71668378    0.0040593301
      4949.44      0.73559214    0.0040709019
      4954.39      0.74981276    0.0040774662
      4959.35      0.75965886    0.0040886424
      4964.31      0.76430803    0.0040956801
      4969.27      0.76636431    0.0041064003
      4974.24      0.76221232    0.0040754953
      4979.22      0.75487802    0.0041243203
      4984.20      0.74073376    0.0040927056
      4989.18      0.72282651    0.0041422688
      4994.17      0.70094145    0.0041099360
      4999.16      0.67375341    0.0041224818
      5004.16      0.64849689    0.0041274613
      5009.17      0.61917970    0.0041394335
      5014.18      0.59201606    0.0041889254
      5019.19      0.56746145    0.0041563737
      5024.21      0.54584332    0.0041691265
      5029.23      0.53062847    0.0041736839
      5034.26      0.51845636    0.0041857959
      5039.30      0.51087745    0.0041913023
      5044.34      0.50870849    0.0042027247
      5049.39      0.51101168    0.0042154124
      5054.43      0.51539926    0.0042198671
      5059.49      0.52590507    0.0042319015
      5064.55      0.53829079    0.0042005891
      5069.61      0.54950313    0.0042487213
      5074.68      0.56173019    0.0042610975
      5079.76      0.57310035    0.0042286745
      5084.84      0.58417675    0.0042775105
      5089.92      0.59456142    0.0042462348
      5095.01      0.60395132    0.0042569891
      5100.11      0.61361650    0.0043063936
      5105.21      0.62230642    0.0042742078
      5110.31      0.62913005    0.0042852539
      5115.42      0.63485960    0.0042920974
      5120.54      0.64075204    0.0043023592
      5125.66      0.64679031    0.0043136197
      5130.79      0.65301017    0.0043201058
      5135.92      0.65707159    0.0043304131
      5141.05      0.65940786    0.0042981280
      5146.20      0.66435600    0.0043480516
      5151.34      0.66657525    0.0043585242
      5156.49      0.66987598    0.0043259712
      5161.65      0.67251796    0.0043759790
      5166.81      0.67273708    0.0043865129
      5171.98      0.67403601    0.0043537379
      5177.15      0.67757222    0.0044040364
      5182.33      0.68112300    0.0044145594
      5187.51      0.68703788    0.0043813873
      5192.70      0.69489986    0.0043934908
      5197.89      0.70307619    0.0044424425
      5203.09      0.71375286    0.0044089618
      5208.29      0.72392419    0.0044209074
      5213.50      0.73449010    0.0044703555
      5218.72      0.74734620    0.0044363619
      5223.93      0.76114235    0.0044480713
