# starting wavelength =        3458.6100
# ending wavelength =        7372.2100
# O2 telluric scale =        0
# O2 telluric shift =        0
# H2O telluric scale =        0
# H2O telluric shift =        0
      3460.58      0.54524726      0.17288032
      3464.04      0.48820820      0.14667343
      3467.51      0.49392371      0.12920827
      3470.98      0.49150764      0.11240395
      3474.45      0.48357106     0.099147310
      3477.92      0.46354824     0.088791698
      3481.40      0.47179855     0.080705446
      3484.88      0.45623583     0.073354509
      3488.37      0.42596657     0.068737518
      3491.86      0.39088924     0.065143363
      3495.35      0.35237935     0.062326881
      3498.84      0.31681721     0.060094180
      3502.34      0.32316182     0.058305353
      3505.84      0.32484864     0.056727460
      3509.35      0.29481413     0.055419074
      3512.86      0.29423895     0.054315956
      3516.37      0.27899500     0.053021070
      3519.89      0.27718518     0.052223164
      3523.41      0.27894615     0.051779395
      3526.93      0.28750337     0.051606135
      3530.46      0.31514331     0.051369279
      3533.99      0.31869096     0.051195093
      3537.53      0.33766207     0.051285524
      3541.06      0.33772773     0.051375878
      3544.60      0.34702173     0.050874272
      3548.15      0.33312374     0.050966042
      3551.70      0.33925175     0.050793605
      3555.25      0.34017059     0.050891954
      3558.80      0.34544156     0.050648050
      3562.36      0.35713756     0.050480799
      3565.92      0.37279481     0.050575284
      3569.49      0.35658513     0.050405078
      3573.06      0.37888819     0.050169273
      3576.64      0.38886558     0.050266382
      3580.21      0.41138676     0.050102513
      3583.79      0.45764426     0.050197740
      3587.38      0.48046950     0.049966860
      3590.96      0.50339327     0.049792547
      3594.55      0.50074917     0.049899634
      3598.15      0.51203683     0.050005022
      3601.75      0.50860522     0.049494667
      3605.35      0.50614201     0.049599740
      3608.96      0.46612002     0.049430898
      3612.56      0.45743934     0.049197961
      3616.18      0.46818192     0.049306063
      3619.79      0.44416257     0.049146049
      3623.41      0.45829016     0.049250659
      3627.04      0.45871065     0.049019099
      3630.66      0.46718248     0.048848132
      3634.29      0.47452321     0.048971663
      3637.93      0.50440607     0.048731090
      3641.57      0.52203268     0.048854856
      3645.21      0.53583294     0.048681913
      3648.86      0.49694863     0.048811930
      3652.50      0.48909769     0.048572956
      3656.16      0.48259615     0.048411376
      3659.81      0.46833201     0.048530663
      3663.47      0.46110451     0.048303983
      3667.14      0.43993292     0.048131325
      3670.80      0.41600456     0.048268753
      3674.48      0.41742314     0.048030202
      3678.15      0.41660740     0.048167865
      3681.83      0.41957174     0.047995204
      3685.51      0.41796897     0.047768415
      3689.20      0.44522621     0.047903140
      3692.88      0.46271816     0.047745675
      3696.58      0.48609799     0.047505952
      3700.27      0.51092342     0.047647403
      3703.98      0.50877228     0.047792809
      3707.68      0.50754747     0.047250047
      3711.39      0.49792349     0.047396238
      3715.10      0.49631146     0.047542499
      3718.81      0.54027155     0.047323318
      3722.53      0.52200004     0.047145330
      3726.26      0.53916552     0.047305881
      3729.98      0.58027363     0.047071147
      3733.71      0.58431209     0.047232598
      3737.45      0.60277857     0.047060301
      3741.18      0.58769011     0.046834606
      3744.93      0.58159256     0.046996355
      3748.67      0.56879597     0.047162988
      3752.42      0.54730430     0.046604397
      3756.17      0.53824542     0.046764877
      3759.93      0.49141577     0.046947276
      3763.69      0.47166925     0.046711795
      3767.45      0.47698191     0.046891955
      3771.22      0.46485197     0.046720369
      3774.99      0.45890849     0.046492826
      3778.77      0.44977388     0.046680727
      3782.54      0.44941213     0.046449323
      3786.33      0.44969559     0.046641167
      3790.11      0.44897237     0.046465648
      3793.90      0.45778431     0.046241811
      3797.70      0.46413893     0.046438573
      3801.50      0.45838456     0.046631555
      3805.30      0.47766904     0.046414076
      3809.10      0.47845439     0.046616001
      3812.91      0.48127498     0.046012937
      3816.73      0.52337149     0.046223729
      3820.54      0.53141305     0.046427608
      3824.36      0.55544547     0.046208800
      3828.19      0.56644636     0.046426005
      3832.02      0.56380141     0.046650209
      3835.85      0.56672157     0.046034589
      3839.68      0.58594037     0.046248673
      3843.52      0.63217846     0.046026901
      3847.37      0.64383165     0.046263898
      3851.22      0.67914006     0.046034947
      3855.07      0.69427081     0.045876610
      3858.92      0.70076090     0.045640463
      3862.78      0.71423186     0.045417717
      3866.64      0.73105217     0.045257229
      3870.51      0.72724660     0.045025531
      3874.38      0.74246449     0.044410305
      3878.26      0.77213511     0.044644030
      3882.13      0.76309084     0.044416875
      3886.02      0.74898769     0.043810063
      3889.90      0.75556390     0.044038962
      3893.79      0.78661136     0.043816073
      3897.69      0.78014619     0.043217603
      3901.59      0.79281032     0.043442425
      3905.49      0.78581272     0.043222108
      3909.39      0.77828318     0.042632412
      3913.30      0.83007406     0.042854235
      3917.22      0.87367255     0.042636808
      3921.13      0.87771111     0.042053293
      3925.06      0.89980497     0.041854796
      3928.98      0.89625263     0.041686246
      3932.91      0.89458300     0.041479633
      3936.84      0.88489003     0.041281097
      3940.78      0.86507055     0.041118630
      3944.72      0.83717613     0.040913301
      3948.67      0.83330223     0.040714965
      3952.61      0.82709350     0.040168328
      3956.57      0.81550196     0.040354944
      3960.52      0.81634808     0.040157140
      3964.48      0.84943879     0.039966425
      3968.45      0.87716750     0.039419708
      3972.42      0.87092186     0.039606434
      3976.39      0.87894102     0.039414437
      3980.37      0.88318014     0.038882327
      3984.35      0.90786064     0.038685405
      3988.33      0.94445631     0.038870100
      3992.32      0.94824379     0.038353788
      3996.31      0.94928812     0.038156668
      4000.31      0.95749723     0.037963739
      4004.31      0.95025117     0.038146989
      4008.31      0.93567494     0.037638037
      4012.32      0.92270278     0.037444321
      4016.33      0.90571835     0.037256657
      4020.35      0.89699637     0.037129921
      4024.37      0.87689294     0.036934509
      4028.40      0.86440944     0.036744906
      4032.42      0.87640377     0.036559054
      4036.46      0.88583254     0.036071072
      4040.50      0.89482250     0.036244623
      4044.54      0.89273539     0.036056997
      4048.58      0.89745721     0.035572376
      4052.63      0.88172165     0.035395203
      4056.68      0.85491592     0.035222463
      4060.74      0.83744461     0.035384543
      4064.80      0.82557264     0.034905958
      4068.86      0.80150791     0.034731719
      4072.93      0.78268997     0.034559709
      4077.01      0.76407142     0.034391646
      4081.08      0.74753031     0.034545545
      4085.17      0.72404012     0.034079000
      4089.25      0.72816001     0.033909102
      4093.34      0.72488367     0.033742048
      4097.43      0.71062335     0.033577777
      4101.53      0.68396859     0.033129725
      4105.63      0.66842190     0.033272373
      4109.74      0.67171140     0.033106378
      4113.85      0.66807759     0.032943469
      4117.96      0.67786980     0.032781780
      4122.08      0.69391822     0.032346296
      4126.20      0.68311801     0.032180734
      4130.33      0.67429276     0.032321260
      4134.46      0.66469123     0.032161048
      4138.59      0.68113152     0.031745141
      4142.73      0.68172894     0.031581740
      4146.88      0.67761014     0.031419749
      4151.02      0.68480117     0.031260465
      4155.18      0.68648068     0.031104455
      4159.33      0.68788556     0.031241213
      4163.49      0.66611642     0.030839992
      4167.65      0.66428226     0.030680998
      4171.82      0.66310549     0.030523778
      4175.99      0.66675796     0.030369637
      4180.17      0.65151525     0.030215583
      4184.35      0.65983138     0.029820249
      4188.54      0.66659953     0.029671271
      4192.72      0.66838194     0.029524342
      4196.92      0.69077567     0.029657350
      4201.11      0.68607107     0.029505161
      4205.31      0.67431095     0.029356289
      4209.52      0.69051428     0.029208622
      4213.73      0.68666537     0.028825480
      4217.94      0.70202202     0.028682624
      4222.16      0.69582349     0.028539191
      4226.38      0.67850533     0.028398461
      4230.61      0.68199713     0.028258071
      4234.84      0.66706375     0.028119178
      4239.08      0.66517939     0.027982318
      4243.32      0.65806373     0.027868040
      4247.56      0.66630018     0.027728738
      4251.81      0.66835998     0.027590652
      4256.06      0.68016074     0.027453057
      4260.32      0.67515439     0.027317810
      4264.58      0.69001042     0.027181855
      4268.84      0.68644759     0.027048310
      4273.11      0.68961076     0.026914963
      4277.38      0.69314340     0.026574615
      4281.66      0.66776183     0.026441857
      4285.94      0.66563850     0.026309103
      4290.23      0.66829156     0.026178458
      4294.52      0.65731402     0.026048421
      4298.81      0.64293420     0.025919192
      4303.11      0.63301150     0.025791511
      4307.42      0.62600243     0.025663695
      4311.72      0.62395857     0.025537840
      4316.04      0.60612071     0.025411769
      4320.35      0.59979559     0.025287252
      4324.67      0.57697092     0.025163319
      4329.00      0.56359470     0.024843417
      4333.33      0.55289104     0.024722157
      4337.66      0.55066972     0.024601620
      4342.00      0.54812754     0.024482087
      4346.34      0.55350485     0.024363017
      4350.69      0.54709814     0.024244692
      4355.04      0.56326882     0.024127100
      4359.39      0.56417051     0.024010285
      4363.75      0.56025209     0.023894562
      4368.12      0.58619858     0.023778820
      4372.48      0.61202285     0.023663909
      4376.86      0.63426101     0.023549650
      4381.23      0.63626715     0.023436204
      4385.61      0.64852212     0.023323385
      4390.00      0.65248416     0.023211300
      4394.39      0.64715151     0.023100054
      4398.79      0.63984273     0.022989286
      4403.18      0.65434071     0.022879239
      4407.59      0.66061747     0.022769874
      4412.00      0.67796224     0.022661315
      4416.41      0.68999551     0.022553917
      4420.82      0.67751834     0.022446519
      4425.25      0.68638420     0.022340065
      4429.67      0.69142827     0.022234346
      4434.10      0.68219348     0.022128939
      4438.54      0.68436755     0.022024625
      4442.97      0.67809688     0.021920639
      4447.42      0.67932263     0.021627153
      4451.86      0.67582769     0.021525901
      4456.32      0.66997155     0.021425287
      4460.77      0.66124462     0.021325476
      4465.24      0.64829168     0.021226476
      4469.70      0.64210929     0.021128287
      4474.17      0.65574152     0.021030927
      4478.65      0.66519110     0.020934531
      4483.12      0.67717899     0.020838729
      4487.61      0.71027909     0.020743770
      4492.09      0.72987366     0.020649660
      4496.59      0.74307389     0.020375687
      4501.08      0.76896794     0.020282034
      4505.58      0.79488109     0.020189389
      4510.09      0.81933702     0.020097433
      4514.60      0.84164117     0.020005982
      4519.12      0.86021173     0.019915807
      4523.63      0.88832014     0.019826059
      4528.16      0.90660846     0.019737658
      4532.69      0.91964363     0.019649840
      4537.22      0.92469200     0.019546290
      4541.76      0.93601188     0.019458000
      4546.30      0.95872292     0.019370358
      4550.85      0.97633335     0.019284002
      4555.40      0.98459526     0.019198231
      4559.95      0.99160080     0.019113886
      4564.51      0.99243332     0.019030244
      4569.08      0.99650427     0.018788087
      4573.65       1.0023303     0.018707160
      4578.22      0.99002363     0.018627436
      4582.80      0.98873717     0.018549057
      4587.38      0.99509049     0.018604536
      4591.97      0.99418471     0.018524497
      4596.56      0.97081378     0.018289848
      4601.16      0.97421277     0.018212847
      4605.76      0.98365672     0.018136453
      4610.37      0.97868167     0.018061389
      4614.98      0.97804063     0.017987759
      4619.59      0.97228337     0.017758954
      4624.21      0.97313536     0.017684805
      4628.84      0.97254837     0.017742718
      4633.47      0.98239610     0.017670568
      4638.10      0.98029147     0.017598948
      4642.74      0.98180994     0.017380868
      4647.38      0.99086735     0.017309005
      4652.03      0.99984866     0.017238209
      4656.68      0.99115492     0.017169268
      4661.34      0.98747528     0.017229160
      4666.00      0.98375616     0.017019302
      4670.67      0.97609166     0.016949539
      4675.33      0.96168154     0.016881986
      4680.01      0.94785788     0.016815114
      4684.69      0.92210271     0.016614118
      4689.38      0.92348275     0.016672218
      4694.07      0.91087030     0.016605893
      4698.76      0.88752999     0.016541554
      4703.46      0.87158827     0.016344404
      4708.16      0.84530286     0.016283750
      4712.87      0.83116316     0.016341138
      4717.58      0.81797396     0.016278442
      4722.30      0.79128250     0.016085402
      4727.03      0.77353623     0.016026438
      4731.75      0.76628334     0.015968726
      4736.48      0.75964939     0.016024973
      4741.22      0.75007356     0.015836741
      4745.96      0.73022364     0.015779675
      4750.71      0.72851383     0.015724941
      4755.46      0.72415596     0.015671124
      4760.22      0.71366913     0.015598750
      4764.97      0.70240544     0.015543660
      4769.74      0.69697190     0.015491057
      4774.51      0.69133102     0.015311302
      4779.29      0.69742030     0.015369769
      4784.07      0.68381759     0.015317462
      4788.85      0.67327057     0.015143861
      4793.64      0.67167442     0.015091276
      4798.43      0.67210692     0.015040085
      4803.23      0.67600876     0.015101902
      4808.03      0.67976063     0.014930494
      4812.84      0.66645306     0.014880774
      4817.66      0.67767748     0.014832635
      4822.48      0.70074165     0.014775921
      4827.30      0.70119920     0.014726727
      4832.12      0.70067465     0.014679948
      4836.96      0.68662430     0.014626359
      4841.79      0.69407996     0.014578461
      4846.63      0.69261683     0.014533092
      4851.48      0.70138582     0.014377139
      4856.33      0.71167836     0.014435782
      4861.19      0.72601719     0.014279825
      4866.05      0.72597713     0.014238402
      4870.92      0.73185897     0.014297770
      4875.79      0.74044169     0.014144918
      4880.66      0.75641563     0.014104841
      4885.55      0.77448255     0.014067390
      4890.43      0.80022208     0.014015063
      4895.32      0.81574034     0.013976965
      4900.22      0.83801410     0.013941260
      4905.12      0.85601685     0.013890691
      4910.02      0.89117144     0.013854480
      4914.94      0.89841967     0.013709167
      4919.85      0.89373045     0.013771349
      4924.77      0.89225286     0.013736818
      4929.70      0.88917484     0.013593185
      4934.62      0.88536929     0.013656797
      4939.56      0.87206621     0.013517491
      4944.50      0.87525990     0.013482524
      4949.44      0.88519481     0.013445198
      4954.39      0.88620480     0.013409816
      4959.35      0.88772822     0.013377203
      4964.31      0.90149579     0.013340007
      4969.27      0.92131263     0.013307098
      4974.24      0.93432235     0.013273135
      4979.22      0.93252841     0.013239971
      4984.20      0.93522919     0.013111847
      4989.18      0.94170876     0.013175607
      4994.17      0.95209628     0.013145216
      4999.16      0.94148575     0.013020601
      5004.16      0.93757955     0.013083091
      5009.17      0.91208450     0.012959273
      5014.18      0.89229549     0.013023769
      5019.19      0.86020755     0.012900534
      5024.21      0.83569827     0.012876467
      5029.23      0.80523245     0.012844229
      5034.26      0.78498884     0.012820472
      5039.30      0.78291255     0.012790298
      5044.34      0.77878634     0.012766669
      5049.39      0.77029471     0.012648373
      5054.43      0.77767106     0.012715210
      5059.49      0.78293557     0.012598983
      5064.55      0.80231082     0.012665950
      5069.61      0.81035111     0.012551632
      5074.68      0.81737533     0.012618784
      5079.76      0.81866541     0.012506179
      5084.84      0.82628316     0.012484457
      5089.92      0.82804202     0.012462951
      5095.01      0.83069493     0.012441725
      5100.11      0.83684930     0.012421507
      5105.21      0.84112459     0.012400935
      5110.31      0.84245872     0.012381923
      5115.42      0.83395086     0.012362027
      5120.54      0.83781148     0.012344075
      5125.66      0.84149952     0.012324980
      5130.79      0.84208243     0.012307972
      5135.92      0.85060876     0.012289900
      5141.05      0.85327415     0.012273880
      5146.20      0.85263652     0.012256740
      5151.34      0.85946835     0.012241489
      5156.49      0.85712028     0.012139437
      5161.65      0.86260393     0.012210825
      5166.81      0.86373684     0.012110267
      5171.98      0.87454539     0.012181898
      5177.15      0.87114860     0.012082881
      5182.33      0.87461582     0.012154668
      5187.51      0.88090911     0.012057445
      5192.70      0.90335341     0.012044507
      5197.89      0.91638292     0.012033968
      5203.09      0.92875685     0.012021366
      5208.29      0.93175171     0.012012350
      5213.50      0.93200780     0.012000029
      5218.72      0.94206252     0.011906627
      5223.93      0.96286484     0.011980567
      5229.16      0.98232079     0.011887342
      5234.39       1.0029190     0.011962978
      5239.62       1.0156839     0.011869845
      5244.86       1.0266442     0.011863476
      5250.11       1.0441027     0.011854451
      5255.36       1.0545201     0.011848022
      5260.61       1.0724222     0.011844514
      5265.87       1.0927102     0.011834465
      5271.14       1.1226600     0.011830789
      5276.41       1.1318521     0.011822879
      5281.69       1.1428775     0.011818998
      5286.97       1.1539648     0.011733838
      5292.26       1.1722769     0.011809194
      5297.55       1.1781853     0.011806987
      5302.85       1.1819224     0.011722483
      5308.15       1.1775206     0.011799156
      5313.46       1.1895662     0.011717347
