# starting wavelength =        3157.8800
# ending wavelength =        8316.5400
# O2 telluric scale =        0
# O2 telluric shift =        0
# H2O telluric scale =        0
# H2O telluric shift =        0
      3159.70       1.0379534      0.36070785
      3162.86      0.89015653      0.30456381
      3166.03      0.83631626      0.25146338
      3169.19      0.79622190      0.21918182
      3172.36      0.75681451      0.20128967
      3175.54      0.70605443      0.18033013
      3178.71      0.66283321      0.15970461
      3181.89      0.51079868      0.14806649
      3185.07      0.50224452      0.13888815
      3188.26      0.42548945      0.13362566
      3191.45      0.35383421      0.12733410
      3194.64      0.27235156      0.12162944
      3197.83      0.19192999      0.11762621
      3201.03      0.16501626      0.11539560
      3204.23      0.12348274      0.11228990
      3207.44      0.10997832      0.10954700
      3210.64      0.10618131      0.10776409
      3213.85      0.12716871      0.10562195
      3217.07      0.13618891      0.10456534
      3220.28     0.082094304      0.10346209
      3223.51     0.072300980      0.10308210
      3226.73      0.12167725      0.10361436
      3229.96      0.15696523      0.10326481
      3233.19      0.15711404      0.10303452
      3236.42      0.13140961      0.10267012
      3239.66      0.17579804      0.10232365
      3242.90      0.16288641      0.10286254
      3246.14      0.13549480      0.10173239
      3249.39      0.18555509      0.10230278
      3252.64      0.23290836      0.10192202
      3255.89      0.29036258      0.10155892
      3259.14      0.29324139      0.10136761
      3262.40      0.28808121      0.10098883
      3265.67      0.32213310      0.10152855
      3268.93      0.38551203      0.10117855
      3272.20      0.43174929      0.10006226
      3275.47      0.43178491      0.10059330
      3278.75      0.45218735      0.10024205
      3282.03      0.44136632      0.10081370
      3285.31      0.35501323      0.10044463
      3288.60      0.33340026     0.099312834
      3291.88      0.28250327     0.099888878
      3295.18      0.22251596     0.099516944
      3298.47      0.15077014     0.099158653
      3301.77      0.16763252     0.098970773
      3305.07     0.090495646     0.098595617
      3308.38     0.038242847     0.099144806
      3311.69    -0.019451857     0.098798293
      3315.00    -0.025700407     0.098464441
      3318.31    -0.043814762     0.098226144
      3321.63    -0.028930684     0.097873962
      3324.95    -0.045319445     0.097536114
      3328.28    -0.089315898     0.098104450
      3331.61     -0.13918768     0.097746300
      3334.94    -0.099633105     0.097572256
      3338.27    -0.046686035     0.097195274
      3341.61   0.00066908344     0.096833432
      3344.95     0.012768423     0.097403136
      3348.30     0.025358352     0.097064625
      3351.65     0.042398691     0.095931692
      3355.00     0.057949774     0.096487676
      3358.35     0.089889409     0.096141251
      3361.71     0.092716699     0.095807291
      3365.07      0.12463309     0.096391445
      3368.44      0.15817820     0.096037845
      3371.81      0.21832045     0.094891940
      3375.18      0.24749108     0.095496976
      3378.56      0.23815191     0.095134074
      3381.94      0.25168532     0.094783824
      3385.32      0.24630172     0.095375384
      3388.70      0.24258256     0.095047885
      3392.09      0.18751624     0.093888531
      3395.48      0.19848187     0.094464627
      3398.88      0.18127638     0.094128491
      3402.28      0.13536162     0.093802135
      3405.68      0.11922260     0.094396803
      3409.09     0.081001584     0.094047519
      3412.49     0.015431545     0.092889447
      3415.91    0.0091172781     0.093513568
      3419.32     0.079072335     0.093154508
      3422.74      0.11024819     0.092807155
      3426.17      0.11261280     0.093412337
      3429.59      0.10651016     0.093083831
      3433.02      0.13401837     0.092766258
      3436.45      0.14506220     0.092515617
      3439.89      0.12160501     0.092175763
      3443.33      0.15088009     0.091845836
      3446.78      0.14727843     0.092487409
      3450.22      0.17233961     0.092133543
      3453.67      0.18861656     0.091788440
      3457.13      0.23848097     0.092420065
      3460.58      0.30941033     0.092094245
      3464.04      0.36523740     0.090916402
      3467.51      0.38636414     0.091524985
      3470.98      0.38243602     0.091185024
      3474.45      0.37284493     0.090854749
      3477.92      0.41323810     0.090534539
      3481.40      0.42630854     0.091180292
      3484.88      0.38946506     0.090833211
      3488.37      0.30512102     0.090497447
      3491.86      0.29708007     0.091154499
      3495.35      0.28043632     0.089975651
      3498.84      0.26085499     0.089625464
      3502.34      0.23396334     0.090259399
      3505.84      0.21928136     0.089921982
      3509.35      0.19727489     0.089595558
      3512.86      0.22949124     0.089275857
      3516.37      0.19415185     0.089955528
      3519.89      0.16752519     0.089611472
      3523.41      0.14588486     0.089273674
      3526.93     0.097843732     0.089953223
      3530.46     0.072863730     0.089628677
      3533.99     0.084306620     0.089312327
      3537.53     0.074298202     0.088075659
      3541.06     0.077671724     0.088733667
      3544.60     0.064315687     0.088400815
      3548.15     0.093491267     0.088075865
      3551.70      0.10024978     0.087757740
      3555.25     0.076239064     0.088478107
      3558.80     0.067000411     0.088133434
      3562.36     0.072727740     0.087794325
      3565.92     0.078078088     0.088496490
      3569.49     0.078663352     0.088168564
      3573.06     0.067335399     0.087848078
      3576.64     0.096872360     0.087535971
      3580.21      0.12949228     0.088273627
      3583.79      0.20237370     0.087933714
      3587.38      0.16793679     0.087598968
      3590.96      0.11084512     0.087270888
      3594.55      0.14291041     0.088019104
      3598.15      0.13991522     0.087698289
      3601.75     0.097426172     0.087386704
      3605.35      0.12353901     0.086083634
      3608.96      0.14846674     0.086802015
      3612.56      0.15526725     0.086473441
      3616.18      0.17274981     0.086148528
      3619.79      0.16491304     0.085826675
      3623.41      0.15716870     0.086662832
      3627.04      0.15406782     0.086313456
      3630.66      0.17464335     0.085972960
      3634.29      0.16242031     0.085638402
      3637.93      0.13588776     0.086400673
      3641.57      0.15882212     0.086072878
      3645.21      0.17658738     0.085748057
      3648.86      0.17539835     0.085428263
      3652.50      0.17197515     0.085113258
      3656.16      0.15541862     0.085971498
      3659.81      0.16032885     0.085629335
      3663.47     0.099786175     0.085293655
      3667.14     0.056520945     0.084963272
      3670.80     0.051480850     0.085769516
      3674.48     0.023094065     0.085442642
      3678.15     0.059359186     0.085117544
      3681.83     0.089140208     0.084800056
      3685.51     0.061581303     0.084484277
      3689.20     0.056238684     0.084173496
      3692.88     0.052783059     0.083867323
      3696.58     0.066120085     0.083564243
      3700.27     0.089431729     0.082200775
      3703.98     0.097258237     0.081876801
      3707.68     0.093420632     0.081559033
      3711.39      0.14855652     0.081245472
      3715.10      0.17367192     0.082019107
      3718.81      0.21874600     0.081705885
      3722.53      0.26055745     0.081399937
      3726.26      0.28560257     0.081093329
      3729.98      0.33704790     0.080789635
      3733.71      0.32954781     0.080488733
      3737.45      0.32696651     0.079220313
      3741.18      0.31391422     0.078906618
      3744.93      0.32237848     0.078596937
      3748.67      0.29152813     0.078290295
      3752.42      0.32776063     0.077983357
      3756.17      0.30688656     0.077681671
      3759.93      0.28453104     0.077379771
      3763.69      0.25684314     0.077077538
      3767.45      0.25394616     0.076780270
      3771.22      0.25962798     0.076485572
      3774.99      0.23097654     0.076193158
      3778.77      0.23807641     0.075900343
      3782.54      0.25771230     0.075611570
      3786.33      0.26568433     0.074395632
      3790.11      0.31164465     0.074110555
      3793.90      0.30464794     0.073826865
      3797.70      0.31697684     0.073545208
      3801.50      0.32615926     0.073265346
      3805.30      0.29986228     0.073997987
      3809.10      0.29226522     0.073707586
      3812.91      0.24237920     0.073416517
      3816.73      0.23611036     0.073129424
      3820.54      0.19198487     0.072841931
      3824.36      0.25016400     0.072556034
      3828.19      0.16125047     0.072272699
      3832.02      0.15637443     0.071993389
      3835.85      0.17942229     0.071713083
      3839.68      0.18733519     0.071431893
      3843.52      0.18188766     0.071154554
      3847.37      0.21238713     0.070876370
      3851.22      0.26241493     0.070599598
      3855.07      0.30308328     0.070325232
      3858.92      0.36668313     0.070052962
      3862.78      0.39042598     0.069782249
      3866.64      0.41080666     0.069510175
      3870.51      0.40258445     0.069241553
      3874.38      0.40603726     0.068104725
      3878.26      0.41785368     0.067001370
      3882.13      0.39154442     0.066741207
      3886.02      0.34105304     0.066482974
      3889.90      0.31205731     0.066226032
      3893.79      0.29747650     0.065970136
      3897.69      0.25493135     0.065713312
      3901.59      0.20790876     0.065458045
      3905.49      0.20379362     0.065203971
      3909.39      0.17679305     0.064951468
      3913.30      0.17124327     0.064701162
      3917.22      0.21010887     0.064452382
      3921.13      0.26020187     0.064204806
      3925.06      0.26590813     0.063956775
      3928.98      0.28191930     0.063710580
      3932.91      0.32934209     0.063466000
      3936.84      0.34902496     0.063220607
      3940.78      0.36700266     0.062979206
      3944.72      0.32515933     0.062739595
      3948.67      0.34557264     0.062501231
      3952.61      0.37192652     0.062262744
      3956.57      0.38800716     0.062711072
      3960.52      0.37503837     0.062463612
      3964.48      0.37813670     0.061430579
      3968.45      0.38451983     0.061192499
      3972.42      0.38587860     0.060953508
      3976.39      0.41152491     0.060716383
      3980.37      0.45893402     0.060481013
      3984.35      0.49931185     0.060245748
      3988.33      0.51561378     0.060012324
      3992.32      0.55577751     0.059780716
      3996.31      0.55349690     0.059553107
      4000.31      0.55838165     0.059325353
      4004.31      0.60765891     0.059099936
      4008.31      0.64874186     0.058876725
      4012.32      0.63977332     0.058653619
      4016.33      0.62213479     0.057674667
      4020.35      0.60400080     0.057446675
      4024.37      0.59781581     0.057222343
      4028.40      0.58847778     0.056998358
      4032.42      0.57624713     0.056775121
      4036.46      0.52352859     0.056555974
      4040.50      0.52455872     0.056337686
      4044.54      0.48037271     0.056119715
      4048.58      0.46586568     0.056565064
      4052.63      0.47183312     0.056351159
      4056.68      0.42801688     0.055442414
      4060.74      0.38623366     0.055220918
      4064.80      0.38329262     0.055000182
      4068.86      0.43704618     0.054783721
      4072.93      0.45434985     0.054568411
      4077.01      0.51462380     0.054355651
      4081.08      0.59224223     0.054146669
      4085.17      0.63295380     0.053942057
      4089.25      0.68332819     0.053088709
      4093.34      0.71382690     0.052889984
      4097.43      0.71419125     0.053287912
      4101.53      0.73183367     0.053074942
      4105.63      0.73786735     0.052866748
      4109.74      0.74524872     0.052660256
      4113.85      0.69787712     0.052456115
      4117.96      0.63847558     0.051624957
      4122.08      0.59995146     0.051431350
      4126.20      0.56045676     0.051240250
      4130.33      0.51281995     0.051052773
      4134.46      0.42778160     0.050869281
      4138.59      0.39317516     0.051223938
      4142.73      0.38556601     0.051025886
      4146.88      0.35413235     0.050216830
      4151.02      0.32551342     0.050028500
      4155.18      0.32874739     0.049844430
      4159.33      0.31044885     0.049663192
      4163.49      0.28257577     0.049487336
      4167.65      0.27306861     0.049315602
      4171.82      0.27976455     0.049042219
      4175.99      0.31309089     0.048857385
      4180.17      0.37445523     0.048675955
      4184.35      0.39371822     0.048498819
      4188.54      0.39214020     0.048328212
      4192.72      0.41274213     0.047554397
      4196.92      0.44165798     0.047372261
      4201.11      0.49240608     0.047723858
      4205.31      0.48818073     0.047548477
      4209.52      0.48223383     0.047378392
      4213.73      0.49517394     0.046637120
      4217.94      0.52288020     0.046456580
      4222.16      0.50148266     0.046281123
      4226.38      0.46320633     0.046109663
      4230.61      0.45773708     0.046459309
      4234.84      0.45550836     0.045745078
      4239.08      0.45303627     0.045566278
      4243.32      0.46623439     0.045392690
      4247.56      0.49127787     0.045224464
      4251.81      0.50854558     0.045061740
      4256.06      0.55124195     0.044874619
      4260.32      0.55296773     0.044699243
      4264.58      0.54751880     0.044528650
      4268.84      0.51878877     0.044364311
      4273.11      0.53042986     0.044205792
      4277.38      0.51659508     0.044024838
      4281.66      0.49257153     0.043854480
      4285.94      0.49136661     0.043689447
      4290.23      0.47246347     0.043531008
      4294.52      0.46571188     0.042878638
      4298.81      0.44185251     0.042734979
      4303.11      0.37084617     0.043032111
      4307.42      0.33585198     0.042873488
      4311.72      0.35105476     0.042229279
      4316.04      0.33234757     0.042086979
      4320.35      0.32048937     0.042389988
      4324.67      0.31241558     0.042231772
      4329.00      0.32199464     0.041598355
      4333.33      0.31716621     0.041457299
      4337.66      0.30913387     0.041324438
      4342.00      0.30901195     0.041610055
      4346.34      0.32296557     0.040985398
      4350.69      0.32296652     0.040846538
      4355.04      0.36481842     0.040716209
      4359.39      0.38323333     0.040593254
      4363.75      0.43143740     0.040387808
      4368.12      0.48541176     0.040253225
      4372.48      0.51473723     0.040125592
      4376.86      0.55582901     0.039517872
      4381.23      0.57470717     0.039804379
      4385.61      0.58433042     0.039675464
      4390.00      0.60978844     0.039553908
      4394.39      0.61865783     0.038953237
      4398.79      0.58136955     0.039239367
      4403.18      0.58484814     0.039115625
      4407.59      0.58380722     0.038536979
      4412.00      0.59493891     0.038403727
      4416.41      0.56299352     0.038691273
      4420.82      0.53059944     0.038132376
      4425.25      0.52831817     0.037997296
      4429.67      0.51268842     0.037870910
      4434.10      0.51012744     0.038160006
      4438.54      0.51250667     0.037601539
      4442.97      0.49778568     0.037473940
      4447.42      0.48706533     0.037355244
      4451.86      0.51710488     0.037215768
      4456.32      0.52406603     0.037087734
      4460.77      0.55258039     0.036968497
      4465.24      0.58201804     0.036838466
      4469.70      0.59448733     0.036710514
      4474.17      0.59150476     0.036592016
      4478.65      0.58218900     0.036083289
      4483.12      0.57821618     0.036343599
      4487.61      0.60270055     0.036225319
      4492.09      0.63718990     0.035721744
      4496.59      0.67483196     0.035983956
      4501.08      0.69784618     0.035867410
      4505.58      0.70882893     0.035369886
      4510.09      0.74822474     0.035633674
      4514.60      0.76150374     0.035518327
      4519.12      0.74440088     0.035026953
      4523.63      0.74806646     0.034934366
      4528.16      0.74766121     0.034794049
      4532.69      0.77122844     0.034693727
      4537.22      0.81938281     0.034604223
      4541.76      0.84602698     0.034466325
      4546.30      0.86697816     0.034369843
      4550.85      0.88619995     0.034284151
      4555.40      0.87120393     0.034147919
      4559.95      0.87003443     0.034054885
      4564.51      0.88332426     0.033973287
      4569.08      0.88945633     0.033837785
      4573.65      0.89286935     0.033749831
      4578.22      0.91547846     0.033285209
      4582.80      0.92758224     0.033537170
      4587.38      0.92426220     0.033454162
      4591.97      0.92002034     0.032991150
      4596.56      0.92784701     0.033246272
      4601.16      0.94018239     0.032800280
      4605.76      0.93034976     0.032706744
      4610.37      0.92588349     0.032965035
      4614.98      0.90409602     0.032518730
      4619.59      0.90163413     0.032431268
      4624.21      0.89737981     0.032338409
      4628.84      0.89022490     0.032246693
      4633.47      0.87924034     0.032503052
      4638.10      0.88069589     0.032069340
      4642.74      0.86835884     0.031984673
      4647.38      0.88114967     0.031899392
      4652.03      0.85709127     0.031809834
      4656.68      0.82345404     0.031404230
      4661.34      0.79278827     0.031642910
      4666.00      0.77426087     0.031563020
      4670.67      0.76069837     0.031482158
      4675.33      0.75203572     0.031398217
      4680.01      0.75486465     0.031002566
      4684.69      0.77085009     0.031239267
      4689.38      0.78518782     0.030843279
      4694.07      0.77038312     0.031087102
      4698.76      0.75937965     0.031009581
      4703.46      0.77634244     0.030625985
      4708.16      0.79358504     0.030859179
      4712.87      0.79722945     0.030474497
      4717.58      0.81018052     0.030713692
      4722.30      0.82273696     0.030328879
      4727.03      0.83639245     0.030274864
      4731.75      0.84181240     0.030188404
      4736.48      0.86087719     0.030132747
      4741.22      0.82559374     0.030052884
      4745.96      0.79408551     0.029995627
      4750.71      0.75693574     0.029922024
      4755.46      0.71635800     0.029862958
      4760.22      0.68915647     0.029496097
      4764.97      0.66983401     0.029735179
      4769.74      0.65519194     0.029374736
      4774.51      0.65263191     0.029612182
      4779.29      0.65002179     0.029566109
      4784.07      0.66518287     0.029493062
      4788.85      0.65812862     0.029446580
      4793.64      0.67154520     0.029082100
      4798.43      0.66699422     0.029331481
      4803.23      0.66597643     0.028972084
      4808.03      0.67921907     0.029220791
      4812.84      0.69836113     0.028865460
      4817.66      0.73150900     0.028822651
      4822.48      0.74345059     0.028762868
      4827.30      0.77642591     0.028722985
      4832.12      0.77065009     0.028664209
      4836.96      0.77461196     0.028626133
      4841.79      0.78395006     0.028568425
      4846.63      0.77607330     0.028532966
      4851.48      0.79136232     0.028476700
