# starting wavelength =        3449.8300
# ending wavelength =        7363.4900
# O2 telluric scale =        0
# O2 telluric shift =        0
# H2O telluric scale =        0
# H2O telluric shift =        0
      3450.22      0.34541574     0.090193540
      3453.67      0.32402061     0.076113018
      3457.13      0.30172272     0.064898583
      3460.58      0.28521106     0.054348940
      3464.04      0.27978652     0.047751993
      3467.51      0.26988335     0.042587503
      3470.98      0.26275426     0.038572165
      3474.45      0.25523190     0.035467362
      3477.92      0.25176440     0.033505435
      3481.40      0.26684330     0.031515805
      3484.88      0.25173866     0.029963136
      3488.37      0.23773996     0.028741791
      3491.86      0.23776458     0.027538853
      3495.35      0.24563077     0.026773246
      3498.84      0.25282631     0.026141236
      3502.34      0.26042739     0.025610795
      3505.84      0.26541699     0.025159531
      3509.35      0.27329074     0.024636162
      3512.86      0.27013330     0.024280989
      3516.37      0.27695678     0.024207355
      3519.89      0.27714098     0.024260946
      3523.41      0.29131145     0.024035686
      3526.93      0.29383435     0.024087454
      3530.46      0.29092128     0.024018324
      3533.99      0.30311908     0.024068385
      3537.53      0.29075206     0.023970765
      3541.06      0.27034339     0.023896336
      3544.60      0.26932060     0.023951284
      3548.15      0.27584650     0.023883065
      3551.70      0.27621657     0.023778832
      3555.25      0.28561813     0.023835592
      3558.80      0.28869419     0.023761985
      3562.36      0.26810997     0.023820720
      3565.92      0.24229823     0.023590706
      3569.49      0.23055374     0.023647756
      3573.06      0.20953464     0.023704922
      3576.64      0.20651953     0.023633161
      3580.21      0.21782199     0.023534643
      3583.79      0.21485719     0.023594056
      3587.38      0.20199948     0.023525915
      3590.96      0.17757293     0.023424394
      3594.55      0.17831746     0.023355710
      3598.15      0.17328582     0.023414111
      3601.75      0.18052180     0.023478858
      3605.35      0.16410510     0.023244785
      3608.96      0.16389851     0.023308250
      3612.56      0.16504442     0.023371078
      3616.18      0.16757804     0.023300001
      3619.79      0.16688300     0.023201140
      3623.41      0.16027920     0.023266790
      3627.04      0.15281456     0.023199973
      3630.66      0.14866730     0.023096284
      3634.29      0.15086147     0.023162998
      3637.93      0.13709360     0.023091065
      3641.57      0.13111188     0.022994204
      3645.21      0.12107681     0.023062436
      3648.86      0.10606695     0.023133781
      3652.50      0.10246728     0.023061847
      3656.16      0.10830117     0.022966017
      3659.81      0.11376088     0.023038519
      3663.47      0.10023197     0.022972406
      3667.14     0.097092820     0.022870465
      3670.80     0.084310651     0.022944804
      3674.48     0.087827589     0.022872889
      3678.15     0.093411627     0.022775970
      3681.83      0.11563185     0.022851990
      3685.51      0.14097916     0.022928969
      3689.20      0.15416562     0.022683114
      3692.88      0.15044473     0.022758612
      3696.58      0.15186675     0.022840367
      3700.27      0.16711619     0.022741884
      3703.98      0.17219013     0.022672473
      3707.68      0.17793835     0.022751629
      3711.39      0.19197559     0.022658448
      3715.10      0.19189176     0.022740371
      3718.81      0.20186464     0.022673384
      3722.53      0.20704741     0.022573685
      3726.26      0.20304839     0.022661406
      3729.98      0.20608120     0.022751377
      3733.71      0.20121307     0.022493552
      3737.45      0.19003137     0.022583973
      3741.18      0.18389508     0.022672851
      3744.93      0.17301979     0.022579819
      3748.67      0.18110813     0.022502831
      3752.42      0.17288091     0.022601873
      3756.17      0.17858043     0.022500284
      3759.93      0.19224691     0.022596061
      3763.69      0.21206322     0.022697143
      3767.45      0.21834547     0.022426424
      3771.22      0.22953931     0.022529747
      3774.99      0.24356520     0.022627541
      3778.77      0.24063055     0.022533693
      3782.54      0.23597956     0.022639266
      3786.33      0.23004316     0.022364358
      3790.11      0.23372390     0.022472727
      3793.90      0.23550351     0.022577712
      3797.70      0.24438711     0.022485536
      3801.50      0.24845625     0.022596556
      3805.30      0.24451170     0.022710134
      3809.10      0.24710694     0.022427856
      3812.91      0.24346762     0.022536719
      3816.73      0.24399518     0.022442665
      3820.54      0.24190616     0.022560383
      3824.36      0.24976110     0.022679626
      3828.19      0.25982448     0.022587982
      3832.02      0.27351369     0.022507609
      3835.85      0.29082013     0.022413186
      3839.68      0.31293942     0.022541265
      3843.52      0.31815019     0.022443038
      3847.37      0.32810698     0.022376932
      3851.22      0.35058746     0.022275495
      3855.07      0.36143383     0.022180084
      3858.92      0.37236458     0.022112273
      3862.78      0.39809471     0.022013461
      3866.64      0.43700303     0.021920263
      3870.51      0.45769506     0.021850734
      3874.38      0.48462405     0.021752038
      3878.26      0.50466155     0.021465624
      3882.13      0.51932863     0.021589066
      3886.02      0.54302861     0.021492313
      3889.90      0.54004488     0.021209541
      3893.79      0.54630646     0.021331089
      3897.69      0.54093078     0.021236058
      3901.59      0.52080686     0.020957195
      3905.49      0.51559695     0.021077808
      3909.39      0.48547558     0.020984271
      3913.30      0.47882652     0.020708847
      3917.22      0.45095408     0.020624942
      3921.13      0.43028918     0.020551359
      3925.06      0.41941032     0.020463505
      3928.98      0.40823161     0.020380476
      3932.91      0.39315736     0.020309013
      3936.84      0.40440442     0.020220206
      3940.78      0.40543066     0.020134650
      3944.72      0.40389131     0.019873853
      3948.67      0.40027280     0.019976641
      3952.61      0.40047197     0.019891444
      3956.57      0.40189418     0.019809840
      3960.52      0.40217972     0.019737232
      3964.48      0.39813587     0.019652171
      3968.45      0.39459472     0.019570465
      3972.42      0.38324306     0.019316579
      3976.39      0.37008696     0.019417669
      3980.37      0.34486823     0.019335651
      3984.35      0.32891838     0.019089098
      3988.33      0.32379512     0.019004099
      3992.32      0.31204340     0.019105116
      3996.31      0.30663554     0.018866446
      4000.31      0.31585595     0.018779939
      4004.31      0.30688627     0.018695213
      4008.31      0.31550773     0.018613719
      4012.32      0.32408505     0.018556730
      4016.33      0.33078160     0.018471774
      4020.35      0.33850804     0.018389393
      4024.37      0.35267429     0.018309537
      4028.40      0.35991585     0.018253922
      4032.42      0.37332457     0.018171028
      4036.46      0.37663587     0.018090482
      4040.50      0.39072588     0.017857879
      4044.54      0.40095408     0.017782277
      4048.58      0.39219154     0.017877843
      4052.63      0.38372162     0.017798388
      4056.68      0.36946377     0.017569733
      4060.74      0.36496729     0.017494567
      4064.80      0.35638710     0.017420373
      4068.86      0.35826511     0.017510018
      4072.93      0.36025458     0.017282599
      4077.01      0.35860188     0.017206927
      4081.08      0.34648055     0.017132942
      4085.17      0.34185184     0.017060604
      4089.25      0.33232837     0.016989914
      4093.34      0.33063235     0.016926339
      4097.43      0.32652685     0.016852961
      4101.53      0.32525074     0.016781154
      4105.63      0.32472885     0.016710818
      4109.74      0.32645856     0.016499822
      4113.85      0.33253373     0.016427453
      4117.96      0.34519385     0.016509007
      4122.08      0.34308368     0.016439097
      4126.20      0.33026666     0.016369582
      4130.33      0.33754244     0.016164512
      4134.46      0.33874290     0.016091859
      4138.59      0.33378043     0.016020893
      4142.73      0.33285403     0.015950984
      4146.88      0.34458405     0.016030368
      4151.02      0.33665048     0.015833546
      4155.18      0.33417256     0.015762685
      4159.33      0.32547199     0.015692981
      4163.49      0.31366232     0.015624362
      4167.65      0.31734571     0.015556796
      4171.82      0.32811145     0.015490224
      4175.99      0.32304215     0.015297215
      4180.17      0.32602061     0.015377093
      4184.35      0.33166468     0.015309695
      4188.54      0.33378626     0.015243225
      4192.72      0.35038988     0.015176868
      4196.92      0.35071699     0.015110635
      4201.11      0.34661421     0.014920616
      4205.31      0.34526108     0.014856411
      4209.52      0.34604727     0.014792852
      4213.73      0.34274704     0.014729980
      4217.94      0.33411747     0.014667842
      4222.16      0.33083335     0.014739171
      4226.38      0.32046142     0.014675246
      4230.61      0.30534887     0.014491511
      4234.84      0.30277651     0.014429497
      4239.08      0.29684968     0.014368128
      4243.32      0.29718545     0.014307317
      4247.56      0.29409812     0.014247482
      4251.81      0.28222643     0.014187916
      4256.06      0.27009679     0.014128284
      4260.32      0.26915305     0.014068634
      4264.58      0.26634957     0.013895621
      4268.84      0.26739285     0.013835114
      4273.11      0.27557648     0.013775493
      4277.38      0.27037045     0.013716385
      4281.66      0.27575588     0.013657805
      4285.94      0.27324888     0.013599761
      4290.23      0.27758636     0.013542190
      4294.52      0.27805614     0.013485150
      4298.81      0.28250597     0.013428588
      4303.11      0.28283955     0.013372436
      4307.42      0.28120776     0.013334905
      4311.72      0.29032048     0.013278337
      4316.04      0.30145650     0.013222701
      4320.35      0.30661188     0.013166905
      4324.67      0.31493147     0.013111006
      4329.00      0.31487384     0.013055005
      4333.33      0.31703433     0.012999452
      4337.66      0.32151274     0.012944455
      4342.00      0.33243563     0.012889840
      4346.34      0.33787065     0.012835641
      4350.69      0.34034309     0.012781879
      4355.04      0.34715363     0.012728571
      4359.39      0.36556485     0.012675687
      4363.75      0.37812363     0.012623321
      4368.12      0.38564523     0.012571163
      4372.48      0.39906655     0.012519460
      4376.86      0.40325501     0.012360577
      4381.23      0.41498094     0.012310131
      4385.61      0.42235975     0.012161929
      4390.00      0.43346272     0.012111836
      4394.39      0.44217082     0.012061763
      4398.79      0.45669964     0.012011698
      4403.18      0.46841369     0.011962405
      4407.59      0.48565156     0.011913477
      4412.00      0.50087698     0.011864937
      4416.41      0.51030471     0.011816801
      4420.82      0.52495840     0.011769094
      4425.25      0.53907676     0.011722064
      4429.67      0.54684899     0.011674855
      4434.10      0.55581620     0.011628307
      4438.54      0.58217159     0.011582097
      4442.97      0.60069096     0.011536713
      4447.42      0.61294398     0.011491283
      4451.86      0.62431812     0.011445843
      4456.32      0.63832592     0.011297734
      4460.77      0.64344444     0.011251942
      4465.24      0.65283448     0.011293817
      4469.70      0.65895366     0.011248681
      4474.17      0.66077741     0.011203930
      4478.65      0.66162041     0.011159598
      4483.12      0.66587167     0.011115686
      4487.61      0.66249254     0.011072245
      4492.09      0.66262334     0.011029245
      4496.59      0.66804231     0.010986685
      4501.08      0.66698754     0.010944543
      4505.58      0.66953931     0.010809197
      4510.09      0.66534738     0.010767040
      4514.60      0.66241054     0.010724972
      4519.12      0.66003226     0.010683039
      4523.63      0.65890644     0.010641256
      4528.16      0.64767117     0.010599606
      4532.69      0.64923796     0.010558791
      4537.22      0.64916356     0.010518444
      4541.76      0.64951425     0.010391209
      4546.30      0.64485858     0.010352248
      4550.85      0.64418932     0.010391454
      4555.40      0.63821354     0.010351637
      4559.95      0.63230987     0.010312349
      4564.51      0.63022445     0.010273550
      4569.08      0.62846588     0.010150429
      4573.65      0.62434177     0.010113036
      4578.22      0.62928638     0.010075918
      4582.80      0.63332024     0.010039106
      4587.38      0.63751221     0.010002621
      4591.97      0.63509119    0.0099664715
      4596.56      0.63494541    0.0099183548
      4601.16      0.63223897    0.0098817880
      4605.76      0.63022321    0.0098458396
      4610.37      0.62002326    0.0098105317
      4614.98      0.61428984    0.0097758886
      4619.59      0.61000444    0.0097419085
      4624.21      0.59753308    0.0096244346
      4628.84      0.58454825    0.0095899440
      4633.47      0.57467967    0.0096288472
      4638.10      0.56950421    0.0095954786
      4642.74      0.56415278    0.0095625233
      4647.38      0.56213713    0.0094490174
      4652.03      0.56243032    0.0094149623
      4656.68      0.56976342    0.0093813668
      4661.34      0.56776308    0.0093488064
      4666.00      0.57428636    0.0093110968
      4670.67      0.57621942    0.0092777258
      4675.33      0.58741691    0.0092451616
      4680.01      0.59419524    0.0092133658
      4684.69      0.59932058    0.0091085574
      4689.38      0.59766795    0.0091465282
      4694.07      0.58789396    0.0091149452
      4698.76      0.58011136    0.0090840940
      4703.46      0.57742077    0.0089811345
      4708.16      0.57323290    0.0089517577
      4712.87      0.56652950    0.0089230386
      4717.58      0.56385359    0.0089577773
      4722.30      0.56439477    0.0088559554
      4727.03      0.56160059    0.0088271940
      4731.75      0.56188802    0.0087993363
      4736.48      0.56367788    0.0087724044
      4741.22      0.56928325    0.0087357349
      4745.96      0.57185065    0.0087081068
      4750.71      0.56909586    0.0086814546
      4755.46      0.57177719    0.0086557620
      4760.22      0.58171869    0.0086208395
      4764.97      0.58720213    0.0085945204
      4769.74      0.58495792    0.0085689734
      4774.51      0.58352933    0.0084734590
      4779.29      0.57997962    0.0084469149
      4784.07      0.57792351    0.0084834855
      4788.85      0.58184598    0.0083905507
      4793.64      0.58864241    0.0083642651
      4798.43      0.59169429    0.0083390545
      4803.23      0.59127382    0.0083108407
      4808.03      0.58944923    0.0082849784
      4812.84      0.58316493    0.0082602590
      4817.66      0.57787179    0.0082339731
      4822.48      0.57190933    0.0082087943
      4827.30      0.56066760    0.0081847228
      4832.12      0.55122139    0.0080985944
      4836.96      0.54147231    0.0081348732
      4841.79      0.53240780    0.0081107997
      4846.63      0.52888407    0.0080253879
      4851.48      0.53110785    0.0080036813
      4856.33      0.52552529    0.0080380182
      4861.19      0.52401255    0.0079539784
      4866.05      0.52526734    0.0079331604
      4870.92      0.52959939    0.0079682418
      4875.79      0.53542698    0.0078856254
      4880.66      0.54397530    0.0078656786
      4885.55      0.56083848    0.0079011161
      4890.43      0.57402385    0.0078202093
      4895.32      0.58741775    0.0078012132
      4900.22      0.59959452    0.0077204693
      4905.12      0.60696386    0.0077566416
      4910.02      0.61389734    0.0077380782
      4914.94      0.62448041    0.0076576514
      4919.85      0.61900624    0.0076940547
      4924.77      0.62493549    0.0076162260
      4929.70      0.63142634    0.0075970313
      4934.62      0.64239199    0.0076344292
      4939.56      0.65503430    0.0075572706
      4944.50      0.65872652    0.0075941708
      4949.44      0.65425961    0.0075191553
      4954.39      0.65724808    0.0075011147
      4959.35      0.65845434    0.0074828906
      4964.31      0.66015429    0.0074643313
      4969.27      0.66674084    0.0074472328
      4974.24      0.66936619    0.0074282677
      4979.22      0.67483481    0.0074106580
      4984.20      0.67709984    0.0073398215
      4989.18      0.67765403    0.0073750972
      4994.17      0.68014679    0.0073046640
      4999.16      0.68080854    0.0073411694
      5004.16      0.68270937    0.0072709910
      5009.17      0.69034715    0.0072568034
      5014.18      0.68764181    0.0072924731
      5019.19      0.69618477    0.0072247563
      5024.21      0.70362864    0.0072613945
      5029.23      0.70839221    0.0071935968
      5034.26      0.70940894    0.0071810190
      5039.30      0.70507786    0.0071630579
      5044.34      0.70412881    0.0071503340
      5049.39      0.71249023    0.0071330651
      5054.43      0.71554342    0.0071204068
      5059.49      0.71911147    0.0071043457
      5064.55      0.72604535    0.0070919948
      5069.61      0.72599164    0.0070266078
      5074.68      0.73149491    0.0070647387
      5079.76      0.73420700    0.0070003089
      5084.84      0.73123089    0.0070388262
      5089.92      0.73820273    0.0069752892
      5095.01      0.74305984    0.0070136942
      5100.11      0.75146615    0.0069505803
      5105.21      0.76517465    0.0069889196
      5110.31      0.76597499    0.0069262054
      5115.42      0.77047139    0.0068657522
      5120.54      0.77709174    0.0069025925
      5125.66      0.78594671    0.0068430498
      5130.79      0.79000042    0.0068801945
      5135.92      0.79987543    0.0068213797
      5141.05      0.81475490    0.0068587747
      5146.20      0.83045496    0.0068009529
      5151.34      0.84567872    0.0068386405
      5156.49      0.86063466    0.0067813773
      5161.65      0.87198976    0.0067707338
      5166.81      0.88485291    0.0067622953
      5171.98      0.89228677    0.0067516910
      5177.15      0.89863076    0.0067437530
      5182.33      0.90394391    0.0067330969
      5187.51      0.91494824    0.0067259757
      5192.70      0.91763225    0.0067158059
      5197.89      0.92432559    0.0066604598
      5203.09      0.92813250    0.0066995682
      5208.29      0.92941695    0.0066445141
      5213.50      0.93307367    0.0066846427
      5218.72      0.93834727    0.0066296764
      5223.93      0.95095974    0.0066228821
      5229.16      0.95882045    0.0066620549
      5234.39      0.96912330    0.0066082866
      5239.62      0.98150757    0.0066481792
      5244.86      0.99778436    0.0065941959
      5250.11       1.0138162    0.0065883862
      5255.36       1.0278313    0.0065813125
      5260.61       1.0396331    0.0065755440
      5265.87       1.0555927    0.0065249947
      5271.14       1.0622973    0.0065639157
      5276.41       1.0724834    0.0065594662
      5281.69       1.0805616    0.0065090469
      5286.97       1.0904225    0.0065488078
      5292.26       1.0944555    0.0064995740
      5297.55       1.1025360    0.0064944673
