# starting wavelength =        3249.2400
# ending wavelength =        8408.9000
# O2 telluric scale =        0
# O2 telluric shift =        0
# H2O telluric scale =        0
# H2O telluric shift =        0
      3249.39     0.010324133     0.028186895
      3252.64     0.019257130     0.023645811
      3255.89     0.032469648     0.019397482
      3259.14     0.043377851     0.016774546
      3262.40     0.052035014     0.014744484
      3265.67     0.055622940     0.013600661
      3268.93     0.058005215     0.012281931
      3272.20     0.063084342     0.010982953
      3275.47     0.066183092     0.010248493
      3278.75     0.071008852    0.0096682159
      3282.03     0.072168579    0.0093332722
      3285.31     0.067814746    0.0089340117
      3288.60     0.072029095    0.0086037369
      3291.88     0.071134440    0.0083221088
      3295.18     0.069541484    0.0081013279
      3298.47     0.069110136    0.0079808225
      3301.77     0.067437016    0.0078039809
      3305.07     0.068589797    0.0076458199
      3308.38     0.071075023    0.0075585959
      3311.69     0.068775410    0.0074865884
      3315.00     0.069110386    0.0074154724
      3318.31     0.066475474    0.0074594500
      3321.63     0.063088138    0.0074443219
      3324.95     0.057022213    0.0074908310
      3328.28     0.051512249    0.0074744904
      3331.61     0.052581165    0.0074027115
      3334.94     0.053160694    0.0074501567
      3338.27     0.056779716    0.0074336246
      3341.61     0.063351657    0.0074179363
      3344.95     0.061398240    0.0074647224
      3348.30     0.060102860    0.0073935827
      3351.65     0.056722926    0.0073776188
      3355.00     0.062505874    0.0074236973
      3358.35     0.064196244    0.0074091816
      3361.71     0.062991496    0.0073955467
      3365.07     0.064011086    0.0073835594
      3368.44     0.068663125    0.0073686586
      3371.81     0.069147494    0.0073545504
      3375.18     0.072261500    0.0074023205
      3378.56     0.075187486    0.0073870043
      3381.94     0.072168247    0.0074355348
      3385.32     0.075363415    0.0073639912
      3388.70     0.079569803    0.0073482905
      3392.09     0.083304465    0.0073960158
      3395.48     0.083912206    0.0073816610
      3398.88     0.086863248    0.0073680256
      3402.28     0.087373750    0.0074180451
      3405.68     0.093357065    0.0073428102
      3409.09     0.099470564    0.0073286427
      3412.49     0.099919108    0.0073807945
      3415.91      0.10007398    0.0073653178
      3419.32      0.10276596    0.0073505271
      3422.74      0.10894743    0.0073364414
      3426.17      0.10882433    0.0073874687
      3429.59      0.10911596    0.0073136237
      3433.02      0.10857656    0.0072989991
      3436.45      0.10973803    0.0073490361
      3439.89      0.11045736    0.0073356043
      3443.33      0.10970323    0.0073228041
      3446.78      0.11662910    0.0073748492
      3450.22      0.11808790    0.0073605731
      3453.67      0.11999519    0.0072847543
      3457.13      0.11645809    0.0073397873
      3460.58      0.11624171    0.0073248384
      3464.04      0.11743981    0.0073106087
      3467.51      0.11786394    0.0073631394
      3470.98      0.12096938    0.0073499965
      3474.45      0.11993052    0.0073374602
      3477.92      0.12551959    0.0073255569
      3481.40      0.12668308    0.0073790232
      3484.88      0.12640335    0.0073004942
      3488.37      0.12260324    0.0072877866
      3491.86      0.11751847    0.0073450818
      3495.35      0.11675697    0.0073308057
      3498.84      0.11509053    0.0073172130
      3502.34      0.11684015    0.0073041851
      3505.84      0.11746219    0.0073597916
      3509.35      0.12045012    0.0073478345
      3512.86      0.11886061    0.0073363768
      3516.37      0.11212378    0.0073930240
      3519.89      0.10465640    0.0073120623
      3523.41     0.099990809    0.0072996031
      3526.93      0.10325402    0.0072877751
      3530.46      0.10415808    0.0073472308
      3533.99      0.10316159    0.0073338486
      3537.53      0.10723592    0.0073209614
      3541.06      0.10958979    0.0073791105
      3544.60      0.11003628    0.0073670569
      3548.15      0.11106365    0.0073555895
      3551.70      0.11376157    0.0073445746
      3555.25      0.12083982    0.0074050615
      3558.80      0.13262641    0.0073925157
      3562.36      0.13897804    0.0073802800
      3565.92      0.13846686    0.0073686776
      3569.49      0.14109018    0.0073623473
      3573.06      0.14554215    0.0073491649
      3576.64      0.14715978    0.0073365959
      3580.21      0.14931305    0.0073243026
      3583.79      0.14506303    0.0073854480
      3587.38      0.14345886    0.0073739648
      3590.96      0.14740887    0.0073628479
      3594.55      0.14797048    0.0073523137
      3598.15      0.14722912    0.0074180732
      3601.75      0.14749333    0.0074058121
      3605.35      0.14812809    0.0073939731
      3608.96      0.14018327    0.0073824755
      3612.56      0.13451263    0.0074478155
      3616.18      0.13576888    0.0074370971
      3619.79      0.13822371    0.0074265835
      3623.41      0.14146169    0.0074165711
      3627.04      0.14190989    0.0074851235
      3630.66      0.14285726    0.0074734133
      3634.29      0.13983354    0.0074622126
      3637.93      0.13549446    0.0074512044
      3641.57      0.13284223    0.0075204854
      3645.21      0.13843890    0.0075103145
      3648.86      0.13832372    0.0075003163
      3652.50      0.13195907    0.0074908165
      3656.16      0.12754136    0.0074814205
      3659.81      0.12658990    0.0075531545
      3663.47      0.12487926    0.0075422057
      3667.14      0.11972860    0.0075315053
      3670.80      0.11512617    0.0075211324
      3674.48      0.11373829    0.0075947808
      3678.15      0.11576234    0.0075850298
      3681.83      0.11341754    0.0075755063
      3685.51      0.11607715    0.0075662329
      3689.20      0.11597618    0.0075571998
      3692.88      0.11650887    0.0076348810
      3696.58      0.11854079    0.0076243515
      3700.27      0.12007078    0.0076140614
      3703.98      0.12198210    0.0076039907
      3707.68      0.12109830    0.0075942017
      3711.39      0.11977519    0.0076729942
      3715.10      0.11485695    0.0076633793
      3718.81      0.11355347    0.0076542364
      3722.53      0.11319261    0.0076452562
      3726.26      0.10947335    0.0076364182
      3729.98      0.10322546    0.0077228373
      3733.71     0.094442754    0.0077124444
      3737.45     0.087832130    0.0077025150
      3741.18     0.080872948    0.0076925595
      3744.93     0.072326721    0.0076830361
      3748.67     0.066139534    0.0077669441
      3752.42     0.058416275    0.0078592276
      3756.17     0.053269632    0.0078500269
      3759.93     0.048376922    0.0078411730
      3763.69     0.045137891    0.0078322598
      3767.45     0.043502825    0.0078236324
      3771.22     0.042597902    0.0078150927
      3774.99     0.043474628    0.0078066620
      3778.77     0.041010308    0.0076972215
      3782.54     0.039554283    0.0077934473
      3786.33     0.035148250    0.0077842090
      3790.11     0.033787269    0.0077750816
      3793.90     0.033607423    0.0077661645
      3797.70     0.032493952    0.0077573261
      3801.50     0.029154612    0.0077489440
      3805.30     0.029718923    0.0077406384
      3809.10     0.034243787    0.0077321754
      3812.91     0.037224924    0.0077240304
      3816.73     0.038888091    0.0077159441
      3820.54     0.039610546    0.0077079297
      3824.36     0.041019464    0.0077000278
      3828.19     0.044288744    0.0076922589
      3832.02     0.050434244    0.0076845104
      3835.85     0.052484142    0.0076771606
      3839.68     0.056326023    0.0076698350
      3843.52     0.058806539    0.0076626093
      3847.37     0.057472420    0.0076554865
      3851.22     0.053786284    0.0076483932
      3855.07     0.056921445    0.0076413414
      3858.92     0.062658176    0.0075351559
      3862.78     0.068540294    0.0075284568
      3866.64     0.081579983    0.0075215552
      3870.51     0.095661741    0.0075149839
      3874.38      0.10764308    0.0075084562
      3878.26      0.12562654    0.0075019079
      3882.13      0.14562814    0.0074957604
      3886.02      0.16557526    0.0074893897
      3889.90      0.18738481    0.0073945517
      3893.79      0.20385475    0.0073884576
      3897.69      0.22389164    0.0073826815
      3901.59      0.24100307    0.0073768810
      3905.49      0.25443002    0.0073711283
      3909.39      0.26280827    0.0073652367
      3913.30      0.26940606    0.0073596476
      3917.22      0.26866534    0.0073543511
      3921.13      0.26438123    0.0073489050
      3925.06      0.26084046    0.0073437539
      3928.98      0.25936067    0.0073384556
      3932.91      0.25869020    0.0073334559
      3936.84      0.25487991    0.0073287849
      3940.78      0.25529619    0.0073239966
      3944.72      0.25301404    0.0073193015
      3948.67      0.24762473    0.0073145984
      3952.61      0.25080978    0.0073102672
      3956.57      0.25698509    0.0073059860
      3960.52      0.26662585    0.0073018159
      3964.48      0.27269488    0.0072975787
      3968.45      0.28085661    0.0072936596
      3972.42      0.29433657    0.0072872787
      3976.39      0.30154633    0.0072826926
      3980.37      0.30847114    0.0072784044
      3984.35      0.32141157    0.0072740411
      3988.33      0.33053696    0.0072697887
      3992.32      0.33479076    0.0072655916
      3996.31      0.33971725    0.0072617927
      4000.31      0.34539311    0.0072580442
      4004.31      0.35610729    0.0072544377
      4008.31      0.36024706    0.0072507930
      4012.32      0.36150570    0.0072475374
      4016.33      0.36223333    0.0072446919
      4020.35      0.35666821    0.0071547691
      4024.37      0.35130992    0.0071506741
      4028.40      0.34874108    0.0071465862
      4032.42      0.34351377    0.0071428424
      4036.46      0.33392628    0.0071393105
      4040.50      0.32499358    0.0071359390
      4044.54      0.31927625    0.0071327725
      4048.58      0.31145103    0.0071298070
      4052.63      0.30364594    0.0072171703
      4056.68      0.29611129    0.0071333095
      4060.74      0.29390632    0.0071290665
      4064.80      0.29126147    0.0071250468
      4068.86      0.28983858    0.0071214508
      4072.93      0.29409948    0.0071179548
      4077.01      0.30379982    0.0071149216
      4081.08      0.31108909    0.0071122120
      4085.17      0.31530991    0.0071097539
      4089.25      0.32064128    0.0071076051
      4093.34      0.32702021    0.0070260766
      4097.43      0.32780791    0.0070247918
      4101.53      0.33130036    0.0071086480
      4105.63      0.33037222    0.0071053309
      4109.74      0.32659965    0.0071023424
      4113.85      0.32320371    0.0070999172
      4117.96      0.32059119    0.0070976802
      4122.08      0.31668842    0.0070165957
      4126.20      0.31485742    0.0070154279
      4130.33      0.31196730    0.0070146315
      4134.46      0.30737778    0.0070142356
      4138.59      0.30509498    0.0070143155
      4142.73      0.30228114    0.0070941279
      4146.88      0.30459645    0.0070128453
      4151.02      0.30494003    0.0070115433
      4155.18      0.30514650    0.0070107011
      4159.33      0.30236925    0.0070102979
      4163.49      0.30311537    0.0070104286
      4167.65      0.30370289    0.0070112267
      4171.82      0.30011730    0.0069282304
      4175.99      0.29875729    0.0070108958
      4180.17      0.29826214    0.0070103237
      4184.35      0.29792326    0.0070103038
      4188.54      0.29345926    0.0070106295
      4192.72      0.29323079    0.0070117174
      4196.92      0.29075205    0.0069299525
      4201.11      0.29104881    0.0069290291
      4205.31      0.29114706    0.0070127062
      4209.52      0.28762072    0.0070130384
      4213.73      0.28563717    0.0070139969
      4217.94      0.28331252    0.0069350978
      4222.16      0.28440618    0.0069339535
      4226.38      0.28282019    0.0069337046
      4230.61      0.28145479    0.0070182915
      4234.84      0.28189978    0.0070192549
      4239.08      0.28594946    0.0069421531
      4243.32      0.29082217    0.0069409134
      4247.56      0.29541865    0.0069404084
      4251.81      0.29675359    0.0069409086
      4256.06      0.30201039    0.0069519460
      4260.32      0.30731750    0.0069502722
      4264.58      0.31066232    0.0069493735
      4268.84      0.31358714    0.0069493371
      4273.11      0.31766034    0.0069501184
      4277.38      0.32237334    0.0068780932
      4281.66      0.32092661    0.0069601646
      4285.94      0.31782783    0.0069595958
      4290.23      0.31596551    0.0069599005
      4294.52      0.31259586    0.0068873378
      4298.81      0.31210377    0.0068895876
      4303.11      0.31024002    0.0069711301
      4307.42      0.30711896    0.0069711106
      4311.72      0.30944376    0.0068983135
      4316.04      0.31275610    0.0069005711
      4320.35      0.31827545    0.0069036238
      4324.67      0.32019277    0.0069838962
      4329.00      0.32206691    0.0069109185
      4333.33      0.32381341    0.0069129707
      4337.66      0.32467265    0.0069160726
      4342.00      0.32371714    0.0069204793
      4346.34      0.32290827    0.0069244464
      4350.69      0.32010181    0.0069267551
      4355.04      0.31601465    0.0069300095
      4359.39      0.31224188    0.0069346412
      4363.75      0.30256511    0.0069393048
      4368.12      0.29570047    0.0069418408
      4372.48      0.29210956    0.0069455993
      4376.86      0.28431291    0.0068734933
      4381.23      0.28082324    0.0069553928
      4385.61      0.27844833    0.0069582810
      4390.00      0.28000483    0.0069623141
      4394.39      0.28462834    0.0068897213
      4398.79      0.29029083    0.0069722631
      4403.18      0.29384246    0.0069757976
      4407.59      0.29824553    0.0069056364
      4412.00      0.30320058    0.0069070775
      4416.41      0.31055769    0.0069908856
      4420.82      0.31319470    0.0069952535
      4425.25      0.31609015    0.0069237431
      4429.67      0.31825989    0.0069259531
      4434.10      0.31970869    0.0070108144
      4438.54      0.32502677    0.0069411007
      4442.97      0.32996094    0.0069425918
      4447.42      0.33613803    0.0069458304
      4451.86      0.34099334    0.0069590303
      4456.32      0.34838226    0.0069602582
      4460.77      0.35377795    0.0069632598
      4465.24      0.36143357    0.0069779287
      4469.70      0.36864803    0.0069789871
      4474.17      0.37681395    0.0069815855
      4478.65      0.38567771    0.0069156604
      4483.12      0.39174183    0.0069981211
      4487.61      0.40344146    0.0070003267
      4492.09      0.41300675    0.0069341777
      4496.59      0.42511192    0.0070175578
      4501.08      0.43916985    0.0070198276
      4505.58      0.45254898    0.0069535397
      4510.09      0.46595887    0.0069595722
      4514.60      0.47432940    0.0070400994
      4519.12      0.48594417    0.0069736236
      4523.63      0.50022070    0.0069799875
      4528.16      0.51579541    0.0070609188
      4532.69      0.52921509    0.0069943959
      4537.22      0.54634913    0.0070009462
      4541.76      0.55965547    0.0070109637
      4546.30      0.57227985    0.0070158469
      4550.85      0.58628729    0.0070227987
      4555.40      0.59820674    0.0070327013
      4559.95      0.61180362    0.0070380521
      4564.51      0.62672555    0.0070455482
      4569.08      0.63825681    0.0070551664
      4573.65      0.64959674    0.0070611159
      4578.22      0.65643613    0.0069948027
      4582.80      0.66785939    0.0070781846
      4587.38      0.67725778    0.0070847645
      4591.97      0.67582067    0.0070175659
      4596.56      0.67310092    0.0071019131
      4601.16      0.66311979    0.0070373463
      4605.76      0.65623845    0.0070410950
      4610.37      0.64896190    0.0071267192
      4614.98      0.63981196    0.0070607817
      4619.59      0.63102826    0.0070653757
      4624.21      0.62483627    0.0070815128
      4628.84      0.61861907    0.0070847698
      4633.47      0.61378020    0.0071707460
      4638.10      0.61346644    0.0071052746
      4642.74      0.60953694    0.0071098083
      4647.38      0.60842485    0.0071268084
      4652.03      0.60981843    0.0071300618
      4656.68      0.60737082    0.0070678276
      4661.34      0.60785876    0.0071513112
      4666.00      0.60852974    0.0071562909
      4670.67      0.61171179    0.0071732465
      4675.33      0.60950706    0.0071769602
      4680.01      0.60566901    0.0071148362
      4684.69      0.60200669    0.0071984893
      4689.38      0.59422960    0.0071351628
      4694.07      0.58489115    0.0072207841
      4698.76      0.57839471    0.0072253568
      4703.46      0.56963204    0.0071639142
      4708.16      0.56458710    0.0072474134
      4712.87      0.56261667    0.0071847639
      4717.58      0.56147565    0.0072697533
      4722.30      0.55590365    0.0072061216
      4727.03      0.55341719    0.0072150928
      4731.75      0.55109734    0.0072280640
      4736.48      0.54891009    0.0072363412
      4741.22      0.55047275    0.0072505092
      4745.96      0.54610909    0.0072581351
      4750.71      0.54766176    0.0071951175
      4755.46      0.55050117    0.0072804435
      4760.22      0.55275281    0.0072180140
      4764.97      0.55342311    0.0073032082
      4769.74      0.55503461    0.0073132446
      4774.51      0.54995472    0.0073262837
      4779.29      0.54545964    0.0073359173
      4784.07      0.53617715    0.0073497292
      4788.85      0.53439148    0.0073590141
      4793.64      0.53168361    0.0072940421
      4798.43      0.52733879    0.0073825251
      4803.23      0.52465958    0.0073178721
      4808.03      0.52229540    0.0074064605
      4812.84      0.51927140    0.0073418892
      4817.66      0.51614688    0.0074304952
      4822.48      0.51290003    0.0073661000
      4827.30      0.50692197    0.0073861408
      4832.12      0.49888295    0.0073906146
      4836.96      0.48529959    0.0074109169
      4841.79      0.47581918    0.0074154090
      4846.63      0.46216237    0.0074359226
      4851.48      0.44760421    0.0074404962
      4856.33      0.42989922    0.0073811112
      4861.19      0.41166291    0.0074655678
      4866.05      0.39557099    0.0074062749
      4870.92      0.37929211    0.0074909421
      4875.79      0.37000287    0.0074317742
      4880.66      0.36700515    0.0075165721
      4885.55      0.37103282    0.0074575897
      4890.43      0.37848858    0.0075424464
      4895.32      0.39684678    0.0074837461
      4900.22      0.42088469    0.0074995570
      4905.12      0.45114365    0.0075102112
      4910.02      0.48496626    0.0075258651
      4914.94      0.51901985    0.0075370758
      4919.85      0.55728805    0.0075523862
      4924.77      0.59379836    0.0075643648
      4929.70      0.63450679    0.0075792516
      4934.62      0.67284065    0.0076672704
      4939.56      0.71023113    0.0076065222
      4944.50      0.74668539    0.0076240452
      4949.44      0.78202936    0.0076341748
      4954.39      0.81105426    0.0076512221
      4959.35      0.83877813    0.0076623101
      4964.31      0.86218034    0.0076787089
      4969.27      0.88052313    0.0076179045
      4974.24      0.89610421    0.0077067035
      4979.22      0.90547947    0.0076448440
      4984.20      0.90884885    0.0077352436
      4989.18      0.90467984    0.0076722818
