# starting wavelength =        3458.7300
# ending wavelength =        7373.5900
# O2 telluric scale =        0
# O2 telluric shift =        0
# H2O telluric scale =        0
# H2O telluric shift =        0
      3460.58       3.8985521     0.081356726
      3464.04       3.9021269     0.050295332
      3467.51       3.8978926     0.038165758
      3470.98       3.8959039     0.032591630
      3474.45       3.9131259     0.030578701
      3477.92       3.8955013     0.029885021
      3481.40       3.9006991     0.029734914
      3484.88       3.8957993     0.029625368
      3488.37       3.8658706     0.029590262
      3491.86       3.8488615     0.029456562
      3495.35       3.8194842     0.029457590
      3498.84       3.8298847     0.029296398
      3502.34       3.8155851     0.029184216
      3505.84       3.8492547     0.029153815
      3509.35       3.8551329     0.029016528
      3512.86       3.9266210     0.029019558
      3516.37       3.9626635     0.028859268
      3519.89       3.9648533     0.028744231
      3523.41       3.9746475     0.028708956
      3526.93       3.9525340     0.028576471
      3530.46       3.9422508     0.027940178
      3533.99       3.9045142     0.028416330
      3537.53       3.8933980     0.028308814
      3541.06       3.8566580     0.028261822
      3544.60       3.8504672     0.028136709
      3548.15       3.8238562     0.028115406
      3551.70       3.8343698     0.027971627
      3555.25       3.8361930     0.027341535
      3558.80       3.7883201     0.027811439
      3562.36       3.7703724     0.027168289
      3565.92       3.7667606     0.027656994
      3569.49       3.7403438     0.027535410
      3573.06       3.7022542     0.026934663
      3576.64       3.6772837     0.027367259
      3580.21       3.6608023     0.026756314
      3583.79       3.6720161     0.027203616
      3587.38       3.6489962     0.026585411
      3590.96       3.6103053     0.027043871
      3594.55       3.6139427     0.026418668
      3598.15       3.5639418     0.026883905
      3601.75       3.5321236     0.026250344
      3605.35       3.4945528     0.026192158
      3608.96       3.4881873     0.026086975
      3612.56       3.4835829     0.026021478
      3616.18       3.4717796     0.025924076
      3619.79       3.4607178     0.025852972
      3623.41       3.4415927     0.025761590
      3627.04       3.4237531     0.025684520
      3630.66       3.3723845     0.025603538
      3634.29       3.3503218     0.025520929
      3637.93       3.3446677     0.025441740
      3641.57       3.3337524     0.025354938
      3645.21       3.3162416     0.025280176
      3648.86       3.2849691     0.025193632
      3652.50       3.2463067     0.025119370
      3656.16       3.2179716     0.025032098
      3659.81       3.1683677     0.024958311
      3663.47       3.1587745     0.024871131
      3667.14       3.1526776     0.024798030
      3670.80       3.1669296     0.024715021
      3674.48       3.1606922     0.024637703
      3678.15       3.1551534     0.024556093
      3681.83       3.1703722     0.024473910
      3685.51       3.1451615     0.024398514
      3689.20       3.1015198     0.024314058
      3692.88       3.0789489     0.024243081
      3696.58       3.0769121     0.024154376
      3700.27       3.0692301     0.024089348
      3703.98       3.1019140     0.023994242
      3707.68       3.1080342     0.023938388
      3711.39       3.1280394     0.023839097
      3715.10       3.1445681     0.023299971
      3718.81       3.1416885     0.023682063
      3722.53       3.1332103     0.023137709
      3726.26       3.1203310     0.023530437
      3729.98       3.0945400     0.022979653
      3733.71       3.0629928     0.023379682
      3737.45       3.0548668     0.022823680
      3741.18       3.0278549     0.022781482
      3744.93       3.0040750     0.022669401
      3748.67       3.0108336     0.022620582
      3752.42       3.0222508     0.022988837
      3756.17       3.0564002     0.022459798
      3759.93       3.0609657     0.022837247
      3763.69       3.0624580     0.022302291
      3767.45       3.0563463     0.022260031
      3771.22       3.0614623     0.022150089
      3774.99       3.0533571     0.022095975
      3778.77       3.0305652     0.022002282
      3782.54       3.0149571     0.021934367
      3786.33       3.0029206     0.021903166
      3790.11       2.9830990     0.021779959
      3793.90       2.9480250     0.021735418
      3797.70       2.8961319     0.021633451
      3801.50       2.8576100     0.021573326
      3805.30       2.8487592     0.021537841
      3809.10       2.8533208     0.021415856
      3812.91       2.8629425     0.021368300
      3816.73       2.8933769     0.021268970
      3820.54       2.9718045     0.021206568
      3824.36       3.0410356     0.021172000
      3828.19       3.1181512     0.021055466
      3832.02       3.1540815     0.021001571
      3835.85       3.1608679     0.020535815
      3839.68       3.1716636     0.020843282
      3843.52       3.1634703     0.020799239
      3847.37       3.1424624     0.020323989
      3851.22       3.1339018     0.020637907
      3855.07       3.1393479     0.020191847
      3858.92       3.1090364     0.020486411
      3862.78       3.0475682     0.020428830
      3866.64       2.9224430     0.019981277
      3870.51       2.8234052     0.020274297
      3874.38       2.7832229     0.020226627
      3878.26       2.8379809     0.019773838
      3882.13       2.9074408     0.020069200
      3886.02       3.0137068     0.019649975
      3889.90       3.1116253     0.019569977
      3893.79       3.1528630     0.019859562
      3897.69       3.0855182     0.019447562
      3901.59       2.9357236     0.019364536
      3905.49       2.7876675     0.019655289
      3909.39       2.6803845     0.019243553
      3913.30       2.6090867     0.019165821
      3917.22       2.5649379     0.019098472
      3921.13       2.5471366     0.019047583
      3925.06       2.5535077     0.018963491
      3928.98       2.5723695     0.018897369
      3932.91       2.5729900     0.018849394
      3936.84       2.5856444     0.018769400
      3940.78       2.5696703     0.018698286
      3944.72       2.5550222     0.018660436
      3948.67       2.5281602     0.018572462
      3952.61       2.5330328     0.018502413
      3956.57       2.5687392     0.018440255
      3960.52       2.6132707     0.018384546
      3964.48       2.6618337     0.018306407
      3968.45       2.7162041     0.018242225
      3972.42       2.7670344     0.018197232
      3976.39       2.7805060     0.018119269
      3980.37       2.7724853     0.018047743
      3984.35       2.7453014     0.017651834
      3988.33       2.7247870     0.017932239
      3992.32       2.6931387     0.017859393
      3996.31       2.6558425     0.017792070
      4000.31       2.6313516     0.017404131
      4004.31       2.6047094     0.017674434
      4008.31       2.5713745     0.017603396
      4012.32       2.5681558     0.017211402
      4016.33       2.5914312     0.017159019
      4020.35       2.6138979     0.017422400
      4024.37       2.6463793     0.017352783
      4028.40       2.6661861     0.016966030
      4032.42       2.6803663     0.016912783
      4036.46       2.6787262     0.016866244
      4040.50       2.6649792     0.017105514
      4044.54       2.6391090     0.016723623
      4048.58       2.6226598     0.016668776
      4052.63       2.6092104     0.016620008
      4056.68       2.5958070     0.016861190
      4060.74       2.5814887     0.016482547
      4064.80       2.5770506     0.016426075
      4068.86       2.5792392     0.016375665
      4072.93       2.5931823     0.016329222
      4077.01       2.6114297     0.016246430
      4081.08       2.6292647     0.016187582
      4085.17       2.6459761     0.016133632
      4089.25       2.6525875     0.016082922
      4093.34       2.6519144     0.016038117
      4097.43       2.6471447     0.015953047
      4101.53       2.6287418     0.015895960
      4105.63       2.6234866     0.015841488
      4109.74       2.6294246     0.015792684
      4113.85       2.6371866     0.015746107
      4117.96       2.6368993     0.015401021
      4122.08       2.6459790     0.015606291
      4126.20       2.6483096     0.015552840
      4130.33       2.6606787     0.015501293
      4134.46       2.6714611     0.015454392
      4138.59       2.6779008     0.015123763
      4142.73       2.6889359     0.015065532
      4146.88       2.6982917     0.015267135
      4151.02       2.6993392     0.015214120
      4155.18       2.6858124     0.015163829
      4159.33       2.6708595     0.015116576
      4163.49       2.6589387     0.014795350
      4167.65       2.6589057     0.014737189
      4171.82       2.6553218     0.014682167
      4175.99       2.6459082     0.014879848
      4180.17       2.6378025     0.014828870
      4184.35       2.6202614     0.014778949
      4188.54       2.5867382     0.014475080
      4192.72       2.5517439     0.014417303
      4196.92       2.5153628     0.014361528
      4201.11       2.5037933     0.014307527
      4205.31       2.5025893     0.014254989
      4209.52       2.5030077     0.014447086
      4213.73       2.4944782     0.014397572
      4217.94       2.4891233     0.014110176
      4222.16       2.4848430     0.014053443
      4226.38       2.4829916     0.013997704
      4230.61       2.4759746     0.013942784
      4234.84       2.4610433     0.013889818
      4239.08       2.4686909     0.013837390
      4243.32       2.4714516     0.013786361
      4247.56       2.4641446     0.013736726
      4251.81       2.4521657     0.013449633
      4256.06       2.4307522     0.013650058
      4260.32       2.4170023     0.013595190
      4264.58       2.4029351     0.013541222
      4268.84       2.3851548     0.013488176
      4273.11       2.3619814     0.013435409
      4277.38       2.3434238     0.013383845
      4281.66       2.3242549     0.013333569
      4285.94       2.3122792     0.013283232
      4290.23       2.3103970     0.013233534
      4294.52       2.3029227     0.013184377
      4298.81       2.3027358     0.012907468
      4303.11       2.3082868     0.012860419
      4307.42       2.3180616     0.012813101
      4311.72       2.3254570     0.012767026
      4316.04       2.3162420     0.012721099
      4320.35       2.3085471     0.012674704
      4324.67       2.3063389     0.012629007
      4329.00       2.3093486     0.012582979
      4333.33       2.3081474     0.012538184
      4337.66       2.3160145     0.012492674
      4342.00       2.3410785     0.012448103
      4346.34       2.3623396     0.012402561
      4350.69       2.3896094     0.012357885
      4355.04       2.3988451     0.012312469
      4359.39       2.3994704     0.012268579
      4363.75       2.3847784     0.012223929
      4368.12       2.3514535     0.012178779
      4372.48       2.3276532     0.012134418
      4376.86       2.3067726     0.012088731
      4381.23       2.2986910     0.012045170
      4385.61       2.3006582     0.012000211
      4390.00       2.3122247     0.011956113
      4394.39       2.3123455     0.011911304
      4398.79       2.3131306     0.011866541
      4403.18       2.2994024     0.011821927
      4407.59       2.2769620     0.011776833
      4412.00       2.2600050     0.011532767
      4416.41       2.2509679     0.011688073
      4420.82       2.2477997     0.011644124
      4425.25       2.2496323     0.011599520
      4429.67       2.2541139     0.011555727
      4434.10       2.2580891     0.011511499
      4438.54       2.2625252     0.011467415
      4442.97       2.2580914     0.011423519
      4447.42       2.2280401     0.011379289
      4451.86       2.2083823     0.011336344
      4456.32       2.2183207     0.011292848
      4460.77       2.2431765     0.011250264
      4465.24       2.2785294     0.011207411
      4469.70       2.3355197     0.011165487
      4474.17       2.4138586     0.011123482
      4478.65       2.4867072     0.011080922
      4483.12       2.5323456     0.010865769
      4487.61       2.5436441     0.010825232
      4492.09       2.5469194     0.010786413
      4496.59       2.5460944     0.010746685
      4501.08       2.5198480     0.010708566
      4505.58       2.4835811     0.010669953
      4510.09       2.4479630     0.010632448
      4514.60       2.4151840     0.010596322
      4519.12       2.3829049     0.010559631
      4523.63       2.3558888     0.010525153
      4528.16       2.3432647     0.010474619
      4532.69       2.3364133     0.010435338
      4537.22       2.3297915     0.010397104
      4541.76       2.3211401     0.010358344
      4546.30       2.3043215     0.010322223
      4550.85       2.2930439     0.010285556
      4555.40       2.2713814     0.010251027
      4559.95       2.2504681     0.010216212
      4564.51       2.2308957     0.010010325
      4569.08       2.2195379    0.0099720548
      4573.65       2.1986863     0.010097780
      4578.22       2.1833745     0.010061946
      4582.80       2.1649339     0.010025838
      4587.38       2.1420832    0.0099914184
      4591.97       2.1246355    0.0099575291
      4596.56       2.0982437    0.0097612458
      4601.16       2.0721694    0.0097243108
      4605.76       2.0477976    0.0096870067
      4610.37       2.0247047    0.0098115045
      4614.98       2.0033727    0.0097763696
      4619.59       1.9903798    0.0097431427
      4624.21       1.9788347    0.0095558063
      4628.84       1.9654857    0.0095179081
      4633.47       1.9512701    0.0094823843
      4638.10       1.9342737    0.0094470339
      4642.74       1.9043346    0.0095696723
      4647.38       1.8668874    0.0093917790
      4652.03       1.8359992    0.0093529655
      4656.68       1.8022959    0.0093169545
      4661.34       1.7629725    0.0092814910
      4666.00       1.7250612    0.0092491553
      4670.67       1.6817560    0.0092303244
      4675.33       1.6475467    0.0091914615
      4680.01       1.6137827    0.0091554168
      4684.69       1.5783493    0.0091200972
      4689.38       1.5496639    0.0090882648
      4694.07       1.5281882    0.0089227526
      4698.76       1.5160218    0.0090316624
      4703.46       1.5074596    0.0089966666
      4708.16       1.4985000    0.0089626949
      4712.87       1.4813449    0.0087992721
      4717.58       1.4634075    0.0087709988
      4722.30       1.4314016    0.0088745391
      4727.03       1.3980009    0.0088409640
      4731.75       1.3605415    0.0086785228
      4736.48       1.3254126    0.0086508460
      4741.22       1.3054981    0.0087556525
      4745.96       1.3002187    0.0087215137
      4750.71       1.2886474    0.0085612893
      4755.46       1.2786910    0.0085333443
      4760.22       1.2746312    0.0086382975
      4764.97       1.2708191    0.0086044604
      4769.74       1.2702876    0.0084464162
      4774.51       1.2668120    0.0084200941
      4779.29       1.2695303    0.0083962904
      4784.07       1.2854433    0.0084899208
      4788.85       1.2981613    0.0083349115
      4793.64       1.3083292    0.0083098686
      4798.43       1.3149449    0.0084082111
      4803.23       1.3260394    0.0082525025
      4808.03       1.3401911    0.0082266671
      4812.84       1.3467948    0.0082037084
      4817.66       1.3506461    0.0081728340
      4822.48       1.3577173    0.0081462504
      4827.30       1.3695688    0.0081218252
      4832.12       1.3746996    0.0079713035
      4836.96       1.3799857    0.0080669458
      4841.79       1.3796473    0.0080425888
      4846.63       1.3788002    0.0080233096
      4851.48       1.3838521    0.0079900096
      4856.33       1.3862552    0.0079656728
      4861.19       1.3889598    0.0079457555
      4866.05       1.3997915    0.0079144040
      4870.92       1.4074880    0.0078906381
      4875.79       1.4172111    0.0077486167
      4880.66       1.4311858    0.0077209996
      4885.55       1.4435731    0.0078171341
      4890.43       1.4598872    0.0076762904
      4895.32       1.4744205    0.0076495897
      4900.22       1.4858327    0.0077455585
      4905.12       1.4983855    0.0076052684
      4910.02       1.5179573    0.0075797130
      4914.94       1.5419841    0.0076753819
      4919.85       1.5644634    0.0075352057
      4924.77       1.5777387    0.0076276150
      4929.70       1.5793648    0.0074945308
      4934.62       1.5775776    0.0074670860
      4939.56       1.5635513    0.0075602815
      4944.50       1.5478265    0.0074257463
      4949.44       1.5280508    0.0074006034
      4954.39       1.5154618    0.0073868731
      4959.35       1.5129525    0.0073584967
      4964.31       1.5071083    0.0073356553
      4969.27       1.5044933    0.0073192440
      4974.24       1.4986170    0.0072939440
      4979.22       1.5030526    0.0072815951
      4984.20       1.5229309    0.0072537330
      4989.18       1.5576597    0.0072317820
      4994.17       1.6073599    0.0072154350
      4999.16       1.6693266    0.0071912225
      5004.16       1.7400120    0.0071785140
      5009.17       1.8021427    0.0071522422
      5014.18       1.8514727    0.0070325315
      5019.19       1.8672675    0.0071141775
      5024.21       1.8574245    0.0069935466
      5029.23       1.8341738    0.0070778053
      5034.26       1.8064933    0.0070547103
      5039.30       1.7734592    0.0069393904
      5044.34       1.7382124    0.0070172802
      5049.39       1.7074243    0.0069019093
      5054.43       1.6799743    0.0069810807
      5059.49       1.6485313    0.0068649089
      5064.55       1.6159424    0.0069457613
      5069.61       1.5851316    0.0068292310
      5074.68       1.5593293    0.0069108399
      5079.76       1.5380400    0.0067943692
      5084.84       1.5164441    0.0067811852
      5089.92       1.4865581    0.0067601755
      5095.01       1.4654819    0.0067465608
      5100.11       1.4461844    0.0067264506
      5105.21       1.4321177    0.0067127060
      5110.31       1.4276201    0.0066936591
      5115.42       1.4300609    0.0066803218
      5120.54       1.4418878    0.0066612313
      5125.66       1.4552678    0.0066481868
      5130.79       1.4712391    0.0066298380
      5135.92       1.4860090    0.0066169391
      5141.05       1.5092266    0.0065984659
      5146.20       1.5238303    0.0065863026
      5151.34       1.5442003    0.0065683150
      5156.49       1.5546248    0.0064615160
      5161.65       1.5648553    0.0065382717
      5166.81       1.5755017    0.0064315031
      5171.98       1.5781926    0.0065093079
      5177.15       1.5734609    0.0064021621
      5182.33       1.5682946    0.0064811723
      5187.51       1.5630697    0.0063739336
      5192.70       1.5485736    0.0064537622
      5197.89       1.5279145    0.0063459576
      5203.09       1.4979493    0.0063370520
      5208.29       1.4715127    0.0063187351
      5213.50       1.4497281    0.0063089947
      5218.72       1.4220914    0.0063853628
      5223.93       1.4002537    0.0062813179
      5229.16       1.3885226    0.0063601690
      5234.39       1.3791818    0.0062555053
      5239.62       1.3761875    0.0062474033
      5244.86       1.3667170    0.0062303264
      5250.11       1.3634050    0.0062209589
      5255.36       1.3533776    0.0062976966
      5260.61       1.3488742    0.0061954701
      5265.87       1.3357509    0.0061888512
      5271.14       1.3236305    0.0061712362
      5276.41       1.3146162    0.0061627660
      5281.69       1.3035146    0.0060680211
      5286.97       1.2887592    0.0061381096
      5292.26       1.2772499    0.0061320740
      5297.55       1.2642837    0.0061161102
      5302.85       1.2459044    0.0061071405
      5308.15       1.2307954    0.0060158231
      5313.46       1.2106338    0.0060848816
