# starting wavelength =        3457.7400
# ending wavelength =        7372.5900
# O2 telluric scale =        0
# O2 telluric shift =        0
# H2O telluric scale =        0
# H2O telluric shift =        0
      3460.58       3.8055916     0.067155812
      3464.04       3.8557798     0.041134021
      3467.51       3.9261164     0.034043663
      3470.98       3.9319315     0.031032807
      3474.45       3.9498143     0.028798831
      3477.92       3.9284425     0.028692552
      3481.40       3.8706601     0.028675871
      3484.88       3.8461203     0.028542988
      3488.37       3.8029850     0.029098499
      3491.86       3.7663511     0.028407450
      3495.35       3.7610447     0.028289049
      3498.84       3.7677351     0.028287360
      3502.34       3.7749924     0.028146277
      3505.84       3.8055762     0.028048915
      3509.35       3.7854041     0.028009466
      3512.86       3.7786049     0.027891711
      3516.37       3.7888358     0.027885468
      3519.89       3.8040536     0.027746813
      3523.41       3.8144795     0.027651351
      3526.93       3.7826818     0.027611464
      3530.46       3.8109768     0.027494086
      3533.99       3.8418534     0.027477956
      3537.53       3.8282446     0.027344504
      3541.06       3.8406891     0.026732767
      3544.60       3.8383782     0.027202990
      3548.15       3.8119353     0.027098578
      3551.70       3.7998464     0.027066154
      3555.25       3.8024812     0.026944852
      3558.80       3.7790096     0.026354502
      3562.36       3.7662918     0.026798026
      3565.92       3.7464231     0.026197140
      3569.49       3.6971024     0.026653364
      3573.06       3.7007028     0.026040225
      3576.64       3.6759746     0.026511423
      3580.21       3.6287376     0.025889939
      3583.79       3.6017760     0.025830130
      3587.38       3.5950543     0.026248343
      3590.96       3.5760427     0.025672362
      3594.55       3.5573516     0.026099079
      3598.15       3.5468947     0.025515759
      3601.75       3.5216889     0.025953345
      3605.35       3.4949059     0.025364743
      3608.96       3.4647442     0.025806660
      3612.56       3.4021222     0.025211836
      3616.18       3.3797597     0.025660525
      3619.79       3.3531603     0.025062412
      3623.41       3.3552578     0.025014942
      3627.04       3.3524299     0.024916497
      3630.66       3.3716180     0.024863449
      3634.29       3.3493523     0.024767638
      3637.93       3.3348865     0.024709782
      3641.57       3.2908706     0.024622581
      3645.21       3.2372966     0.024561487
      3648.86       3.1860943     0.024475998
      3652.50       3.1423042     0.024413895
      3656.16       3.1320892     0.024329590
      3659.81       3.1149074     0.024267041
      3663.47       3.1314081     0.024184542
      3667.14       3.1221303     0.024124338
      3670.80       3.1362755     0.024038820
      3674.48       3.1308286     0.023979422
      3678.15       3.1249422     0.023892678
      3681.83       3.0789847     0.023837016
      3685.51       3.0644281     0.023748624
      3689.20       3.0478259     0.023699780
      3692.88       3.0328632     0.023605342
      3696.58       3.0433418     0.023072446
      3700.27       3.0640001     0.023459424
      3703.98       3.0806773     0.022928765
      3707.68       3.1211120     0.023318415
      3711.39       3.1437293     0.022784393
      3715.10       3.1303419     0.023178585
      3718.81       3.1428821     0.022640994
      3722.53       3.1286723     0.023040148
      3726.26       3.1153022     0.022499816
      3729.98       3.0981003     0.022907406
      3733.71       3.0805026     0.022824963
      3737.45       3.0740230     0.022311556
      3741.18       3.0808259     0.022683537
      3744.93       3.0977273     0.022165640
      3748.67       3.1122948     0.022546387
      3752.42       3.1440476     0.022021649
      3756.17       3.1717395     0.022412880
      3759.93       3.1789994     0.021880693
      3763.69       3.1671654     0.021839872
      3767.45       3.1471815     0.021746271
      3771.22       3.1403983     0.021691991
      3774.99       3.1124676     0.022062811
      3778.77       3.0755698     0.021546031
      3782.54       3.0355087     0.021514831
      3786.33       3.0027738     0.021407526
      3790.11       2.9748426     0.021362851
      3793.90       2.9333605     0.021274572
      3797.70       2.8848329     0.021216997
      3801.50       2.8314171     0.021183198
      3805.30       2.8226154     0.021078350
      3809.10       2.8264408     0.021030653
      3812.91       2.8550622     0.020571657
      3816.73       2.8881573     0.020883203
      3820.54       2.9404213     0.020851459
      3824.36       2.9947655     0.020746842
      3828.19       3.0472790     0.020698735
      3832.02       3.0800302     0.020248653
      3835.85       3.0863139     0.020555544
      3839.68       3.1035173     0.020512614
      3843.52       3.0974667     0.020056054
      3847.37       3.0904363     0.020365586
      3851.22       3.0920701     0.019936952
      3855.07       3.0807636     0.020227902
      3858.92       3.0432871     0.020177074
      3862.78       2.9585064     0.019742512
      3866.64       2.8707453     0.020036723
      3870.51       2.7678171     0.019991543
      3874.38       2.7742789     0.019554068
      3878.26       2.8200581     0.019847301
      3882.13       2.9621105     0.019803889
      3886.02       3.0828791     0.019365745
      3889.90       3.1781654     0.019658237
      3893.79       3.1914993     0.019255170
      3897.69       3.1135195     0.019180035
      3901.59       2.9595104     0.019470246
      3905.49       2.8156025     0.019069811
      3909.39       2.7159835     0.018996668
      3913.30       2.6542366     0.018937437
      3917.22       2.6216599     0.018888896
      3921.13       2.5976413     0.018813003
      3925.06       2.6079635     0.018753128
      3928.98       2.6133126     0.018708764
      3932.91       2.6219027     0.018633471
      3936.84       2.6115412     0.018571032
      3940.78       2.5962221     0.018534163
      3944.72       2.5752045     0.018455412
      3948.67       2.5588554     0.018391146
      3952.61       2.5560793     0.018338203
      3956.57       2.5695978     0.018282088
      3960.52       2.6276709     0.018212009
      3964.48       2.6887689     0.018154396
      3968.45       2.7540943     0.018111196
      3972.42       2.7995041     0.018039207
      3976.39       2.8036962     0.017976945
      3980.37       2.7940534     0.017587288
      3984.35       2.7733190     0.017868533
      3988.33       2.7382805     0.017801690
      3992.32       2.7048585     0.017743984
      3996.31       2.6735374     0.017362299
      4000.31       2.6556034     0.017633077
      4004.31       2.6360252     0.017568416
      4008.31       2.6021684     0.017184884
      4012.32       2.5827358     0.017139038
      4016.33       2.5877074     0.017402175
      4020.35       2.6024123     0.017338986
      4024.37       2.6188135     0.016960433
      4028.40       2.6407919     0.016914679
      4032.42       2.6552785     0.017174040
      4036.46       2.6656685     0.017111922
      4040.50       2.6587110     0.016738271
      4044.54       2.6495675     0.016690612
      4048.58       2.6283679     0.016651619
      4052.63       2.6164639     0.016888629
      4056.68       2.5921168     0.016517636
      4060.74       2.5797277     0.016467586
      4064.80       2.5740728     0.016424458
      4068.86       2.5743625     0.016667633
      4072.93       2.5919189     0.016299416
      4077.01       2.6120723     0.016247133
      4081.08       2.6425497     0.016201693
      4085.17       2.6535925     0.016159118
      4089.25       2.6547659     0.016394117
      4093.34       2.6417163     0.016029634
      4097.43       2.6283144     0.015980481
      4101.53       2.6127255     0.015934141
      4105.63       2.6046408     0.015892775
      4109.74       2.6069532     0.015554399
      4113.85       2.6118895     0.015766541
      4117.96       2.6335039     0.015715331
      4122.08       2.6425692     0.015668520
      4126.20       2.6596905     0.015625410
      4130.33       2.6783757     0.015299169
      4134.46       2.6903840     0.015244847
      4138.59       2.6865689     0.015453167
      4142.73       2.6805677     0.015405144
      4146.88       2.6850497     0.015359036
      4151.02       2.6830133     0.015316967
      4155.18       2.6824257     0.014994901
      4159.33       2.6718410     0.014941830
      4163.49       2.6653144     0.014891304
      4167.65       2.6679805     0.015098061
      4171.82       2.6698774     0.015051308
      4175.99       2.6522792     0.015008185
      4180.17       2.6370751     0.014699462
      4184.35       2.6240360     0.014645713
      4188.54       2.6001925     0.014595443
      4192.72       2.5786622     0.014546652
      4196.92       2.5518549     0.014499335
      4201.11       2.5195587     0.014700659
      4205.31       2.5061473     0.014656057
      4209.52       2.4991331     0.014361145
      4213.73       2.4968885     0.014309251
      4217.94       2.5061297     0.014258247
      4222.16       2.5085248     0.014208648
      4226.38       2.5104596     0.014160400
      4230.61       2.5190851     0.014113404
      4234.84       2.5143569     0.014067841
      4239.08       2.5059805     0.014037774
      4243.32       2.4991811     0.013985141
      4247.56       2.4924197     0.013934297
      4251.81       2.4820596     0.013883834
      4256.06       2.4930137     0.013835101
      4260.32       2.4804576     0.013786830
      4264.58       2.4763638     0.013738857
      4268.84       2.4639069     0.013691523
      4273.11       2.4456941     0.013646197
      4277.38       2.4154618     0.013601303
      4281.66       2.3893253     0.013320646
      4285.94       2.3706450     0.013276833
      4290.23       2.3501881     0.013234056
      4294.52       2.3437187     0.013191060
      4298.81       2.3367267     0.013149395
      4303.11       2.3400987     0.013107650
      4307.42       2.3404490     0.013291249
      4311.72       2.3423514     0.013244780
      4316.04       2.3387963     0.013199402
      4320.35       2.3379570     0.013153864
      4324.67       2.3469887     0.013108630
      4329.00       2.3504177     0.013063792
      4333.33       2.3511231     0.013018952
      4337.66       2.3539323     0.012975724
      4342.00       2.3683844     0.012932415
      4346.34       2.3838467     0.012664395
      4350.69       2.4047380     0.012621983
      4355.04       2.4235779     0.012579358
      4359.39       2.4171988     0.012537374
      4363.75       2.4024274     0.012494712
      4368.12       2.3747281     0.012453387
      4372.48       2.3492058     0.012411606
      4376.86       2.3313420     0.012370518
      4381.23       2.3165924     0.012329125
      4385.61       2.3125828     0.012288341
      4390.00       2.3159380     0.012247347
      4394.39       2.3206209     0.012206122
      4398.79       2.3068085     0.012165446
      4403.18       2.2931268     0.012124114
      4407.59       2.2774225     0.012084052
      4412.00       2.2661456     0.012043959
      4416.41       2.2597250     0.012003576
      4420.82       2.2560489     0.011963306
      4425.25       2.2509156     0.011923945
      4429.67       2.2477116     0.011697301
      4434.10       2.2501215     0.011657770
      4438.54       2.2442807     0.011620488
      4442.97       2.2301737     0.011581700
      4447.42       2.2046914     0.011544340
      4451.86       2.1838234     0.011505508
      4456.32       2.1929178     0.011469027
      4460.77       2.2178778     0.011431392
      4465.24       2.2699989     0.011394664
      4469.70       2.3396269     0.011359059
      4474.17       2.4147559     0.011322984
      4478.65       2.5011855     0.011465853
      4483.12       2.5477688     0.011425782
      4487.61       2.5632924     0.011387034
      4492.09       2.5545175     0.011348362
      4496.59       2.5361725     0.011131177
      4501.08       2.5006436     0.011094567
      4505.58       2.4735032     0.011057190
      4510.09       2.4417495     0.011021696
      4514.60       2.4096681     0.010985195
      4519.12       2.3955415     0.010951365
      4523.63       2.3773127     0.010916726
      4528.16       2.3589499     0.010883222
      4532.69       2.3390006     0.010851024
      4537.22       2.3224539     0.010818435
      4541.76       2.3080978     0.010599168
      4546.30       2.2902927     0.010737425
      4550.85       2.2792664     0.010701979
      4555.40       2.2711320     0.010667865
      4559.95       2.2571717     0.010633753
      4564.51       2.2442367     0.010601583
      4569.08       2.2312750     0.010569135
      4573.65       2.2167065     0.010539017
      4578.22       2.2003066     0.010328267
      4582.80       2.1773358     0.010293319
      4587.38       2.1508442     0.010429414
      4591.97       2.1262404     0.010395795
      4596.56       2.1041066     0.010363911
      4601.16       2.0669175     0.010332380
      4605.76       2.0413708     0.010135119
      4610.37       2.0219737     0.010099641
      4614.98       2.0060027     0.010065352
      4619.59       1.9958576     0.010032622
      4624.21       1.9813215     0.010166283
      4628.84       1.9644516     0.010136471
      4633.47       1.9458381    0.0099447856
      4638.10       1.9221809    0.0099097143
      4642.74       1.8866044    0.0098760114
      4647.38       1.8533237    0.0098436439
      4652.03       1.8134263    0.0099762523
      4656.68       1.7744011    0.0097932346
      4661.34       1.7424643    0.0097572958
      4666.00       1.7026196    0.0097231461
      4670.67       1.6632764    0.0096907161
      4675.33       1.6276423    0.0096615521
      4680.01       1.5877569    0.0096434000
      4684.69       1.5560222    0.0096074928
      4689.38       1.5281799    0.0095735663
      4694.07       1.5076073    0.0095415069
      4698.76       1.4982856    0.0093718204
      4703.46       1.4948376    0.0094942822
      4708.16       1.4868904    0.0094592530
      4712.87       1.4699728    0.0094265754
      4717.58       1.4504485    0.0093960020
      4722.30       1.4208884    0.0092303356
      4727.03       1.3828059    0.0093467334
      4731.75       1.3483700    0.0093135994
      4736.48       1.3180260    0.0092831626
      4741.22       1.2954596    0.0091182837
      4745.96       1.2761604    0.0090942618
      4750.71       1.2636792    0.0092020594
      4755.46       1.2540223    0.0091719749
      4760.22       1.2518726    0.0090097922
      4764.97       1.2554243    0.0089860236
      4769.74       1.2558877    0.0090935010
      4774.51       1.2607413    0.0089291404
      4779.29       1.2589494    0.0089035116
      4784.07       1.2631434    0.0088813206
      4788.85       1.2658423    0.0089850256
      4793.64       1.2663211    0.0088248742
      4798.43       1.2808204    0.0088007461
      4803.23       1.2941567    0.0087806068
      4808.03       1.3140376    0.0087482379
      4812.84       1.3332479    0.0087226689
      4817.66       1.3502306    0.0087015973
      4822.48       1.3627034    0.0086739164
      4827.30       1.3715248    0.0086475359
      4832.12       1.3727142    0.0086255585
      4836.96       1.3657553    0.0084691498
      4841.79       1.3633743    0.0085741311
      4846.63       1.3562858    0.0085509425
      4851.48       1.3584881    0.0085323058
      4856.33       1.3645702    0.0085023625
      4861.19       1.3784654    0.0084787097
      4866.05       1.3945889    0.0083286133
      4870.92       1.4105120    0.0084309970
      4875.79       1.4239393    0.0084079381
      4880.66       1.4369964    0.0082598713
      4885.55       1.4478741    0.0082334012
      4890.43       1.4592142    0.0083393455
      4895.32       1.4653567    0.0081917577
      4900.22       1.4732579    0.0081658967
      4905.12       1.4830394    0.0082719059
      4910.02       1.5105547    0.0081243361
      4914.94       1.5347286    0.0082255970
      4919.85       1.5570023    0.0082066289
      4924.77       1.5745488    0.0080582554
      4929.70       1.5789836    0.0081602017
      4934.62       1.5742050    0.0080195676
      4939.56       1.5536113    0.0079934161
      4944.50       1.5252947    0.0080970508
      4949.44       1.5014420    0.0079544955
      4954.39       1.4886401    0.0079305092
      4959.35       1.4772695    0.0079177860
      4964.31       1.4638772    0.0078906921
      4969.27       1.4597097    0.0078698364
      4974.24       1.4526672    0.0078531319
      4979.22       1.4601968    0.0078294045
      4984.20       1.4811331    0.0078173628
      4989.18       1.5159186    0.0077909461
      4994.17       1.5700001    0.0076625462
      4999.16       1.6428384    0.0077542009
      5004.16       1.7193177    0.0077319712
      5009.17       1.7904957    0.0077187086
      5014.18       1.8395684    0.0076941604
      5019.19       1.8567738    0.0075696914
      5024.21       1.8486746    0.0076578933
      5029.23       1.8178282    0.0075317587
      5034.26       1.7760015    0.0076224036
      5039.30       1.7367885    0.0074955768
      5044.34       1.7018478    0.0075883894
      5049.39       1.6714869    0.0074601995
      5054.43       1.6402659    0.0074449333
      5059.49       1.6025182    0.0074257727
      5064.55       1.5701461    0.0074095623
      5069.61       1.5348788    0.0074958460
      5074.68       1.5026754    0.0073747911
      5079.76       1.4740183    0.0074622586
      5084.84       1.4523899    0.0073410999
      5089.92       1.4338296    0.0074292339
      5095.01       1.4168962    0.0073079356
      5100.11       1.4061902    0.0073967319
      5105.21       1.3976118    0.0072752875
      5110.31       1.3984273    0.0072646456
      5115.42       1.4033105    0.0072431843
      5120.54       1.4106991    0.0072332372
      5125.66       1.4230165    0.0072124053
      5130.79       1.4389915    0.0070944562
      5135.92       1.4608886    0.0071815635
      5141.05       1.4746046    0.0070641291
      5146.20       1.4915594    0.0071515193
      5151.34       1.5042386    0.0070344386
      5156.49       1.5214389    0.0071219289
      5161.65       1.5392977    0.0070051993
      5166.81       1.5482527    0.0070933448
      5171.98       1.5605852    0.0069757338
      5177.15       1.5592052    0.0070653353
      5182.33       1.5519151    0.0069478958
      5187.51       1.5415327    0.0069389946
      5192.70       1.5214866    0.0070222335
      5197.89       1.4948882    0.0069104115
      5203.09       1.4675179    0.0069948140
      5208.29       1.4415181    0.0068823768
      5213.50       1.4136349    0.0069687852
      5218.72       1.3926367    0.0068548208
      5223.93       1.3740412    0.0068479920
      5229.16       1.3630116    0.0068289093
      5234.39       1.3615675    0.0068199993
      5239.62       1.3589468    0.0068038035
      5244.86       1.3581196    0.0067934888
      5250.11       1.3570678    0.0067880892
      5255.36       1.3525828    0.0067677379
      5260.61       1.3411164    0.0067603955
      5265.87       1.3279843    0.0067430719
      5271.14       1.3150902    0.0067342715
      5276.41       1.2966248    0.0067294895
      5281.69       1.2839549    0.0067091745
      5286.97       1.2676709    0.0067025598
      5292.26       1.2555452    0.0065990888
      5297.55       1.2440130    0.0066768108
      5302.85       1.2302808    0.0066716669
      5308.15       1.2165271    0.0066540397
      5313.46       1.2065275    0.0066462712
