# starting wavelength =        3457.7400
# ending wavelength =        7372.5900
# O2 telluric scale =        0
# O2 telluric shift =        0
# H2O telluric scale =        0
# H2O telluric shift =        0
      3460.58       3.6602816     0.063811279
      3464.04       3.6344541     0.039090136
      3467.51       3.5808958     0.032355765
      3470.98       3.5922013     0.029497561
      3474.45       3.6109736     0.027378784
      3477.92       3.6157186     0.027283852
      3481.40       3.6148837     0.027277293
      3484.88       3.6200501     0.027157011
      3488.37       3.6031933     0.027693368
      3491.86       3.5630224     0.027043397
      3495.35       3.5166685     0.026936802
      3498.84       3.4741816     0.026944432
      3502.34       3.4534569     0.026816047
      3505.84       3.4611266     0.026729504
      3509.35       3.4945827     0.026701105
      3512.86       3.5313336     0.026594945
      3516.37       3.5727073     0.026598208
      3519.89       3.6012136     0.026472042
      3523.41       3.6314177     0.026387019
      3526.93       3.6571200     0.026358148
      3530.46       3.6814485     0.026252139
      3533.99       3.6337231     0.026245943
      3537.53       3.6377112     0.026124547
      3541.06       3.6219830     0.025547506
      3544.60       3.6155091     0.026004501
      3548.15       3.6021811     0.025910804
      3551.70       3.5745070     0.025888968
      3555.25       3.5608942     0.025778878
      3558.80       3.5544650     0.025221493
      3562.36       3.5170315     0.025653516
      3565.92       3.4588556     0.025085704
      3569.49       3.4346678     0.025530121
      3573.06       3.4416351     0.024950213
      3576.64       3.4418375     0.025409250
      3580.21       3.4361674     0.024820964
      3583.79       3.4378148     0.024769546
      3587.38       3.4241891     0.025178066
      3590.96       3.3827771     0.024632993
      3594.55       3.3319506     0.025049921
      3598.15       3.2734972     0.024497391
      3601.75       3.2152273     0.024925011
      3605.35       3.2224550     0.024367081
      3608.96       3.2202216     0.024799109
      3612.56       3.2278911     0.024234826
      3616.18       3.2164626     0.024673609
      3619.79       3.1946850     0.024105734
      3623.41       3.1776316     0.024066009
      3627.04       3.1913198     0.023980075
      3630.66       3.1732376     0.023934860
      3634.29       3.1455046     0.023851341
      3637.93       3.1329167     0.023801486
      3641.57       3.1205590     0.023726215
      3645.21       3.0976703     0.023673156
      3648.86       3.0595269     0.023599498
      3652.50       3.0114721     0.023545422
      3656.16       2.9592081     0.023472826
      3659.81       2.9547022     0.023418284
      3663.47       2.9379953     0.023347354
      3667.14       2.9222440     0.023295021
      3670.80       2.9059078     0.023221127
      3674.48       2.8984294     0.023169532
      3678.15       2.9071400     0.023094354
      3681.83       2.9029595     0.023046328
      3685.51       2.8726530     0.022969498
      3689.20       2.8512995     0.022928013
      3692.88       2.8576736     0.022845279
      3696.58       2.8580637     0.022336611
      3700.27       2.8853693     0.022718381
      3703.98       2.9066180     0.022211547
      3707.68       2.9276981     0.022596127
      3711.39       2.9432522     0.022085671
      3715.10       2.9533777     0.022474908
      3718.81       2.9451546     0.021960631
      3722.53       2.9125818     0.022354921
      3726.26       2.8974371     0.021837638
      3729.98       2.8705052     0.022240317
      3733.71       2.8484125     0.022168801
      3737.45       2.8601630     0.021677145
      3741.18       2.8730030     0.022045611
      3744.93       2.8956680     0.021549239
      3748.67       2.9324750     0.021926453
      3752.42       2.9538908     0.021423083
      3756.17       2.9606598     0.021810716
      3759.93       2.9540716     0.021299748
      3763.69       2.9394925     0.021268320
      3767.45       2.9241155     0.021182633
      3771.22       2.9170111     0.021138066
      3774.99       2.8961285     0.021506396
      3778.77       2.8633996     0.021009548
      3782.54       2.8564512     0.020987362
      3786.33       2.8268765     0.020888164
      3790.11       2.7940418     0.020852828
      3793.90       2.7585276     0.020772066
      3797.70       2.7355658     0.020723922
      3801.50       2.6931907     0.020699275
      3805.30       2.6769088     0.020602246
      3809.10       2.6627940     0.020563808
      3812.91       2.6745247     0.020121670
      3816.73       2.6976558     0.020433183
      3820.54       2.7314977     0.020410287
      3824.36       2.7752856     0.020313268
      3828.19       2.8105417     0.020274301
      3832.02       2.8323359     0.019840072
      3835.85       2.8407915     0.020147511
      3839.68       2.8501559     0.020113534
      3843.52       2.8361317     0.019672446
      3847.37       2.8280573     0.019982783
      3851.22       2.8259403     0.019568790
      3855.07       2.8099183     0.019861056
      3858.92       2.7905765     0.019819189
      3862.78       2.7249012     0.019398895
      3866.64       2.6280622     0.019694648
      3870.51       2.5634082     0.019658249
      3874.38       2.5870855     0.019234597
      3878.26       2.6421287     0.019529679
      3882.13       2.7814355     0.019494931
      3886.02       2.9121658     0.019070128
      3889.90       3.0014825     0.019364764
      3893.79       3.0162911     0.018974210
      3897.69       2.9334947     0.018907941
      3901.59       2.7806750     0.019200621
      3905.49       2.6564673     0.018812189
      3909.39       2.5602457     0.018747773
      3913.30       2.4993830     0.018697045
      3917.22       2.4627581     0.018654270
      3921.13       2.4715700     0.018587016
      3925.06       2.4870900     0.018535551
      3928.98       2.5035531     0.018496837
      3932.91       2.5052658     0.018430058
      3936.84       2.5000737     0.018375954
      3940.78       2.4896336     0.018344572
      3944.72       2.4593032     0.018274255
      3948.67       2.4331250     0.018218240
      3952.61       2.4407157     0.018173404
      3956.57       2.4674431     0.018122865
      3960.52       2.5173597     0.018060965
      3964.48       2.5781731     0.018011415
      3968.45       2.6306168     0.017973587
      3972.42       2.6782057     0.017909688
      3976.39       2.6872810     0.017855405
      3980.37       2.6652752     0.017474556
      3984.35       2.6350955     0.017760229
      3988.33       2.5927078     0.017701275
      3992.32       2.5551989     0.017651378
      3996.31       2.5335590     0.017277823
      4000.31       2.5158337     0.017553441
      4004.31       2.4906843     0.017496477
      4008.31       2.4747758     0.017120663
      4012.32       2.4549188     0.017082288
      4016.33       2.4499078     0.017350681
      4020.35       2.4648952     0.017295069
      4024.37       2.4774092     0.016923510
      4028.40       2.5041609     0.016885095
      4032.42       2.5114718     0.017150097
      4036.46       2.5228244     0.017095396
      4040.50       2.5036647     0.016728102
      4044.54       2.4845216     0.016687651
      4048.58       2.4571067     0.016655824
      4052.63       2.4370762     0.016898936
      4056.68       2.4240852     0.016533659
      4060.74       2.4125673     0.016490677
      4064.80       2.4284668     0.016454604
      4068.86       2.4245760     0.016704203
      4072.93       2.4355497     0.016341078
      4077.01       2.4477479     0.016295703
      4081.08       2.4577871     0.016257192
      4085.17       2.4683043     0.016221498
      4089.25       2.4642757     0.016463334
      4093.34       2.4617587     0.016103146
      4097.43       2.4611331     0.016060715
      4101.53       2.4670784     0.016021146
      4105.63       2.4614896     0.015986522
      4109.74       2.4605584     0.015651816
      4113.85       2.4695709     0.015871049
      4117.96       2.4809398     0.015826413
      4122.08       2.4892626     0.015786186
      4126.20       2.4987617     0.015749588
      4130.33       2.5162273     0.015426382
      4134.46       2.5412979     0.015378319
      4138.59       2.5515310     0.015594142
      4142.73       2.5683659     0.015552473
      4146.88       2.5869203     0.015512741
      4151.02       2.6051706     0.015477024
      4155.18       2.6104885     0.015157138
      4159.33       2.6107137     0.015110123
      4163.49       2.6065276     0.015065662
      4167.65       2.6066666     0.015280408
      4171.82       2.6129435     0.015239788
      4175.99       2.6008507     0.015202811
      4180.17       2.5837179     0.014895535
      4184.35       2.5566486     0.014847600
      4188.54       2.5262814     0.014803139
      4192.72       2.4923033     0.014760152
      4196.92       2.4546755     0.014718627
      4201.11       2.4254219     0.014928477
      4205.31       2.4147162     0.014889740
      4209.52       2.4065579     0.014595492
      4213.73       2.4038897     0.014549156
      4217.94       2.4050179     0.014503641
      4222.16       2.4032385     0.014459624
      4226.38       2.3997232     0.014416871
      4230.61       2.3927427     0.014375377
      4234.84       2.3794967     0.014335276
      4239.08       2.3719222     0.014308851
      4243.32       2.3693056     0.014261596
      4247.56       2.3551216     0.014215919
      4251.81       2.3554427     0.014170689
      4256.06       2.3425390     0.014127194
      4260.32       2.3297571     0.014084106
      4264.58       2.3110584     0.014041354
      4268.84       2.2951687     0.013999098
      4273.11       2.2772203     0.013958920
      4277.38       2.2656544     0.013919121
      4281.66       2.2536039     0.013636948
      4285.94       2.2444114     0.013598093
      4290.23       2.2402199     0.013560258
      4294.52       2.2484841     0.013522170
      4298.81       2.2518828     0.013485397
      4303.11       2.2639089     0.013448532
      4307.42       2.2744554     0.013641880
      4311.72       2.2747793     0.013600159
      4316.04       2.2733778     0.013559533
      4320.35       2.2677825     0.013518705
      4324.67       2.2525291     0.013478183
      4329.00       2.2467267     0.013437984
      4333.33       2.2467742     0.013397708
      4337.66       2.2505811     0.013359094
      4342.00       2.2720921     0.013320343
      4346.34       2.2935587     0.013049064
      4350.69       2.3029605     0.013011077
      4355.04       2.3188242     0.012972820
      4359.39       2.3112182     0.012935189
      4363.75       2.2834195     0.012896814
      4368.12       2.2510443     0.012859777
      4372.48       2.2167298     0.012822242
      4376.86       2.1905373     0.012785372
      4381.23       2.1785982     0.012748148
      4385.61       2.1783099     0.012711518
      4390.00       2.1821920     0.012674644
      4394.39       2.1922897     0.012637457
      4398.79       2.1916014     0.012600827
      4403.18       2.1863137     0.012563505
      4407.59       2.1848073     0.012527383
      4412.00       2.1776443     0.012491217
      4416.41       2.1738992     0.012454735
      4420.82       2.1702463     0.012418320
      4425.25       2.1578384     0.012382794
      4429.67       2.1516295     0.012153559
      4434.10       2.1418578     0.012117700
      4438.54       2.1335805     0.012084139
      4442.97       2.1160855     0.012048983
      4447.42       2.0928622     0.012015263
      4451.86       2.0673337     0.011979975
      4456.32       2.0730102     0.011947095
      4460.77       2.0961991     0.011912975
      4465.24       2.1451136     0.011879764
      4469.70       2.2180715     0.011847682
      4474.17       2.2945925     0.011815075
      4478.65       2.3751919     0.011970075
      4483.12       2.4213020     0.011933290
      4487.61       2.4330018     0.011897846
      4492.09       2.4212704     0.011862443
      4496.59       2.4032983     0.011641131
      4501.08       2.3785662     0.011607720
      4505.58       2.3536368     0.011573465
      4510.09       2.3316496     0.011541141
      4514.60       2.3056665     0.011507725
      4519.12       2.2860079     0.011477061
      4523.63       2.2692451     0.011445515
      4528.16       2.2544175     0.011415116
      4532.69       2.2391425     0.011386073
      4537.22       2.2293884     0.011356570
      4541.76       2.2206724     0.011131741
      4546.30       2.2175972     0.011282344
      4550.85       2.2103445     0.011249718
      4555.40       2.1984872     0.011218428
      4559.95       2.1893575     0.011187118
      4564.51       2.1805771     0.011157817
      4569.08       2.1681230     0.011128178
      4573.65       2.1522779     0.011100955
      4578.22       2.1408913     0.010884097
      4582.80       2.1196101     0.010851629
      4587.38       2.0941467     0.011000253
      4591.97       2.0643110     0.010969212
      4596.56       2.0345493     0.010939876
      4601.16       2.0100234     0.010910930
      4605.76       1.9932791     0.010707590
      4610.37       1.9707843     0.010674305
      4614.98       1.9518230     0.010642245
      4619.59       1.9393806     0.010611793
      4624.21       1.9245151     0.010758071
      4628.84       1.9091251     0.010730693
      4633.47       1.8986707     0.010532548
      4638.10       1.8759126     0.010499458
      4642.74       1.8475514     0.010467775
      4647.38       1.8191156     0.010437467
      4652.03       1.7749567     0.010582783
      4656.68       1.7324456     0.010393261
      4661.34       1.6966010     0.010359040
      4666.00       1.6581291     0.010326657
      4670.67       1.6242271     0.010296085
      4675.33       1.5927049     0.010268945
      4680.01       1.5524689     0.010254753
      4684.69       1.5106752     0.010220359
      4689.38       1.4796715     0.010188025
      4694.07       1.4543551     0.010157637
      4698.76       1.4360460    0.0099812501
      4703.46       1.4255589     0.010115974
      4708.16       1.4166359     0.010082297
      4712.87       1.4067151     0.010051085
      4717.58       1.3887007     0.010022079
      4722.30       1.3601164    0.0098494688
      4727.03       1.3190476    0.0099778164
      4731.75       1.2856464    0.0099459437
      4736.48       1.2553015    0.0099169200
      4741.22       1.2272588    0.0097447514
      4745.96       1.2067634    0.0097224524
      4750.71       1.1945079    0.0098416601
      4755.46       1.1888985    0.0098128488
      4760.22       1.1919894    0.0096431705
      4764.97       1.1935104    0.0096209907
      4769.74       1.1953617    0.0097398934
      4774.51       1.2020578    0.0095675803
      4779.29       1.2090917    0.0095432971
      4784.07       1.2187402    0.0095226555
      4788.85       1.2257151    0.0096375435
      4793.64       1.2349144    0.0094693618
      4798.43       1.2465165    0.0094465343
      4803.23       1.2590506    0.0094279397
      4808.03       1.2740062    0.0093971668
      4812.84       1.2858891    0.0093726935
      4817.66       1.2963723    0.0093529989
      4822.48       1.3065955    0.0093271295
      4827.30       1.3168783    0.0093016392
      4832.12       1.3260609    0.0092808552
      4836.96       1.3350441    0.0091158154
      4841.79       1.3358227    0.0092320569
      4846.63       1.3338475    0.0092098615
      4851.48       1.3314506    0.0091925523
      4856.33       1.3277651    0.0091638766
      4861.19       1.3276106    0.0091410598
      4866.05       1.3351318    0.0089822734
      4870.92       1.3404679    0.0090957474
      4875.79       1.3589542    0.0090734550
      4880.66       1.3830304    0.0089166211
      4885.55       1.4040351    0.0088905064
      4890.43       1.4279018    0.0090078289
      4895.32       1.4373128    0.0088512460
      4900.22       1.4453777    0.0088256973
      4905.12       1.4541435    0.0089430796
      4910.02       1.4692125    0.0087862610
      4914.94       1.4891979    0.0088985066
      4919.85       1.5115313    0.0088802997
      4924.77       1.5250214    0.0087223714
      4929.70       1.5265377    0.0088353443
      4934.62       1.5259649    0.0086856289
      4939.56       1.5093995    0.0086594606
      4944.50       1.4829774    0.0087742467
      4949.44       1.4641090    0.0086222169
      4954.39       1.4519141    0.0085982818
      4959.35       1.4511065    0.0085872102
      4964.31       1.4384591    0.0085598244
      4969.27       1.4302558    0.0085391753
      4974.24       1.4109600    0.0085236465
      4979.22       1.4076436    0.0084998054
      4984.20       1.4174384    0.0084892475
      4989.18       1.4500311    0.0084624077
      4994.17       1.5015702    0.0083250368
      4999.16       1.5792302    0.0084267083
      5004.16       1.6576361    0.0084043100
      5009.17       1.7335687    0.0083922032
      5014.18       1.7845569    0.0083672107
      5019.19       1.7960824    0.0082337719
      5024.21       1.7760195    0.0083316252
      5029.23       1.7339423    0.0081962386
      5034.26       1.6857448    0.0082967218
      5039.30       1.6401305    0.0081604497
      5044.34       1.6029646    0.0082632622
      5049.39       1.5724885    0.0081253720
      5054.43       1.5436013    0.0081101821
      5059.49       1.5197491    0.0080911777
      5064.55       1.4900916    0.0080748824
      5069.61       1.4537040    0.0081705040
      5074.68       1.4214955    0.0080400803
      5079.76       1.4014794    0.0081369581
      5084.84       1.3871904    0.0080063013
      5089.92       1.3734126    0.0081038664
      5095.01       1.3628201    0.0079729391
      5100.11       1.3524298    0.0080711893
      5105.21       1.3519509    0.0079399839
      5110.31       1.3549328    0.0079294702
      5115.42       1.3597817    0.0079074709
      5120.54       1.3718774    0.0078976514
      5125.66       1.3935225    0.0078762525
      5130.79       1.4138482    0.0077485699
      5135.92       1.4410629    0.0078448120
      5141.05       1.4580938    0.0077175822
      5146.20       1.4737134    0.0078140970
      5151.34       1.4874462    0.0076872919
      5156.49       1.4991710    0.0077837166
      5161.65       1.5121932    0.0076570501
      5166.81       1.5280909    0.0077543077
      5171.98       1.5457730    0.0076265834
      5177.15       1.5541603    0.0077253723
      5182.33       1.5593826    0.0075977404
      5187.51       1.5501055    0.0075888574
      5192.70       1.5337563    0.0076806131
      5197.89       1.5085042    0.0075589782
      5203.09       1.4739207    0.0076519488
      5208.29       1.4400035    0.0075295571
      5213.50       1.4096817    0.0076246751
      5218.72       1.3894852    0.0075005213
      5223.93       1.3722202    0.0074936272
      5229.16       1.3600722    0.0074731479
      5234.39       1.3554654    0.0074638976
      5239.62       1.3510440    0.0074465198
      5244.86       1.3525839    0.0074356579
      5250.11       1.3490366    0.0074301322
      5255.36       1.3387862    0.0074081137
      5260.61       1.3269500    0.0074003842
      5265.87       1.3146799    0.0073816298
      5271.14       1.3029486    0.0073722237
      5276.41       1.2931949    0.0073672327
      5281.69       1.2821767    0.0073450786
      5286.97       1.2720645    0.0073379449
      5292.26       1.2638067    0.0072247206
      5297.55       1.2525102    0.0073098654
      5302.85       1.2366831    0.0073042544
      5308.15       1.2219555    0.0072849268
      5313.46       1.2053801    0.0072763539
