# starting wavelength =        3460.7200
# ending wavelength =        7375.5700
# O2 telluric scale =        0
# O2 telluric shift =        0
# H2O telluric scale =        0
# H2O telluric shift =        0
      3464.04       1.8525869       1.0779661
      3467.51       1.7427549      0.91789499
      3470.98       1.6359841      0.79079716
      3474.45       1.6993722      0.67237109
      3477.92       1.8255618      0.59841395
      3481.40       2.0043094      0.54058332
      3484.88       1.9990342      0.49576206
      3488.37       2.1474578      0.46116644
      3491.86       2.1690636      0.43871298
      3495.35       2.2754266      0.41628366
      3498.84       2.2804211      0.39865307
      3502.34       2.3740142      0.38460650
      3505.84       2.2016988      0.37033807
      3509.35       2.1563223      0.36125080
      3512.86       2.1373676      0.35364557
      3516.37       2.0710628      0.34717377
      3519.89       2.0470947      0.34160321
      3523.41       2.1000680      0.33467161
      3526.93       2.0361828      0.33345755
      3530.46       2.0780877      0.33228505
      3533.99       2.0254952      0.33282689
      3537.53       1.8320936      0.32950285
      3541.06       1.7085228      0.33002003
      3544.60       1.6521219      0.33053577
      3548.15       1.7690247      0.32937664
      3551.70       1.8452230      0.32776922
      3555.25       1.7455822      0.32660103
      3558.80       1.5800327      0.32716547
      3562.36       1.6766262      0.32769490
      3565.92       1.7500732      0.32439098
      3569.49       1.8251690      0.32492975
      3573.06       1.7232053      0.32378278
      3576.64       1.6484078      0.32440190
      3580.21       1.5973862      0.32273924
      3583.79       1.4471715      0.32163411
      3587.38       1.5126249      0.32217638
      3590.96       1.5679160      0.32061257
      3594.55       1.5370044      0.31943530
      3598.15       1.5809041      0.32005247
      3601.75       1.5495647      0.32066434
      3605.35       1.6372180      0.31731491
      3608.96       1.4921194      0.31792737
      3612.56       1.5271266      0.31856549
      3616.18       1.4150327      0.31748496
      3619.79       1.2309784      0.31583384
      3623.41       1.1676776      0.31650220
      3627.04       1.0221232      0.31534825
      3630.66       1.0940491      0.31378451
      3634.29       1.2644170      0.31444241
      3637.93       1.2225770      0.31334983
      3641.57       1.0683512      0.31172770
      3645.21       1.0563777      0.31244577
      3648.86       1.1420248      0.31128064
      3652.50       1.0874568      0.31204636
      3656.16       1.1592880      0.31042449
      3659.81       1.1984704      0.30933942
      3663.47       1.3979698      0.31002326
      3667.14       1.2738579      0.30848904
      3670.80       1.2593411      0.30732714
      3674.48       1.3678628      0.30813478
      3678.15       1.4392388      0.30652221
      3681.83       1.4119556      0.30731939
      3685.51       1.4285579      0.30616339
      3689.20       1.3412881      0.30462935
      3692.88       1.2205324      0.30541497
      3696.58       1.2176247      0.30435825
      3700.27       1.2238204      0.30273831
      3703.98       1.2942332      0.30355489
      3707.68       1.2570578      0.30440972
      3711.39       1.3250059      0.30338007
      3715.10       1.2122868      0.30173806
      3718.81       1.1878257      0.30258759
      3722.53       1.2110396      0.30352982
      3726.26       1.1790270      0.29991204
      3729.98       1.1293687      0.30086585
      3733.71       1.2698883      0.29927476
      3737.45       1.1594002      0.30021869
      3741.18       1.0606812      0.30116280
      3744.93       1.2068486      0.29753341
      3748.67       1.2405218      0.29849315
      3752.42       1.2729069      0.29945614
      3756.17       1.3677996      0.29797465
      3759.93       1.4485813      0.29677855
      3763.69       1.5116925      0.29786968
      3767.45       1.5661863      0.29626961
      3771.22       1.4487705      0.29731833
      3774.99       1.3584685      0.29842137
      3778.77       1.2964931      0.29463617
      3782.54       1.1555394      0.29576380
      3786.33       1.2142458      0.29681857
      3790.11       1.2923409      0.29531475
      3793.90       1.3142106      0.29645980
      3797.70       1.2778619      0.29263234
      3801.50       1.4407127      0.29381036
      3805.30       1.5733001      0.29494392
      3809.10       1.5498071      0.29344025
      3812.91       1.4002815      0.29466109
      3816.73       1.3458388      0.29311800
      3820.54       1.3194923      0.29201984
      3824.36       1.2757215      0.29321675
      3828.19       1.2915644      0.29171431
      3832.02       1.4728241      0.29303197
      3835.85       1.4804769      0.29433844
      3839.68       1.3655642      0.29286499
      3843.52       1.2666573      0.29165403
      3847.37       1.1712137      0.29013628
      3851.22      0.91321399      0.29157324
      3855.07      0.92341462      0.29000087
      3858.92      0.92684908      0.28897466
      3862.78       1.0142646      0.28736112
      3866.64       1.1284051      0.28582777
      3870.51       1.1371792      0.28478831
      3874.38       1.1627540      0.28320715
      3878.26       1.1280394      0.28170143
      3882.13       1.2943927      0.28065680
      3886.02       1.3384942      0.27910712
      3889.90       1.4855139      0.27519530
      3893.79       1.6842561      0.27658761
      3897.69       1.8350704      0.27505911
      3901.59       1.8716723      0.27119812
      3905.49       2.0335771      0.27257299
      3909.39       2.0150883      0.27106046
      3913.30       1.8776126      0.26725092
      3917.22       1.7899906      0.26587060
      3921.13       1.8476103      0.26710762
      3925.06       1.8706499      0.26334472
      3928.98       1.8701644      0.26198080
      3932.91       1.8192372      0.26321115
      3936.84       1.6751715      0.25949274
      3940.78       1.4603405      0.25812869
      3944.72       1.3215657      0.25682086
      3948.67       1.2161896      0.25568883
      3952.61       1.1197139      0.25433189
      3956.57       1.2243993      0.25301912
      3960.52       1.1452371      0.25193494
      3964.48       1.0826818      0.25057467
      3968.45       1.0779069      0.24926463
      3972.42       1.0009384      0.24582256
      3976.39      0.91632970      0.24687885
      3980.37       1.0271977      0.24555993
      3984.35       1.0689964      0.24222222
      3988.33       1.0637473      0.24087269
      3992.32       1.2065808      0.24191949
      3996.31       1.2780277      0.24063575
      4000.31       1.3635504      0.23732665
      4004.31       1.4953499      0.23601251
      4008.31       1.7031035      0.23473414
      4012.32       1.8286270      0.23385177
      4016.33       1.9581189      0.23252986
      4020.35       2.0592157      0.23124377
      4024.37       2.1821526      0.22999049
      4028.40       2.2248735      0.22912177
      4032.42       2.1794763      0.22782656
      4036.46       1.9613880      0.22656468
      4040.50       1.7555686      0.22343494
      4044.54       1.7114349      0.22223962
      4048.58       1.4189374      0.22321114
      4052.63       1.3221034      0.22196878
      4056.68       1.3731100      0.21889489
      4060.74       1.3939779      0.21770983
      4064.80       1.2506250      0.21655197
      4068.86       1.2137162      0.21746357
      4072.93       1.0946738      0.21444328
      4077.01       1.0341688      0.21327097
      4081.08       1.2657793      0.21212001
      4085.17       1.5017135      0.21099284
      4089.25       1.7180761      0.21007950
      4093.34       1.8275503      0.20891589
      4097.43       1.9467641      0.20777217
      4101.53       2.0620970      0.20665058
      4105.63       2.1071205      0.20554649
      4109.74       2.0395952      0.20272301
      4113.85       1.9432975      0.20352042
      4117.96       1.8348312      0.20240250
      4122.08       1.7062097      0.20130135
      4126.20       1.5658150      0.20021842
      4130.33       1.7038673      0.19749136
      4134.46       1.8768326      0.19639049
      4138.59       1.9779084      0.19530303
      4142.73       1.8930071      0.19608493
      4146.88       1.8048978      0.19502178
      4151.02       1.7372429      0.19240184
      4155.18       1.7311902      0.19131801
      4159.33       1.8484551      0.19024999
      4163.49       1.9004806      0.18919494
      4167.65       1.8374853      0.18815400
      4171.82       1.7317365      0.18745331
      4175.99       1.6958237      0.18638876
      4180.17       1.6465991      0.18533386
      4184.35       1.6112736      0.18429892
      4188.54       1.4519931      0.18327221
      4192.72       1.3954933      0.18225981
      4196.92       1.3412086      0.17979362
      4201.11       1.2019357      0.17880768
      4205.31       1.2971864      0.17783320
      4209.52       1.3954111      0.17686483
      4213.73       1.4841847      0.17755567
      4217.94       1.5113316      0.17656307
      4222.16       1.4781195      0.17416931
      4226.38       1.3901102      0.17320086
      4230.61       1.3912903      0.17224890
      4234.84       1.3867035      0.17129905
      4239.08       1.3622847      0.17036317
      4243.32       1.3565770      0.16942797
      4247.56       1.2568185      0.16850922
      4251.81       1.1846559      0.16759166
      4256.06       1.1941102      0.16534735
      4260.32       1.1974390      0.16442857
      4264.58       1.2791765      0.16351523
      4268.84       1.2106024      0.16261386
      4273.11       1.2282282      0.16321255
      4277.38       1.2639033      0.16231718
      4281.66       1.3744759      0.16142318
      4285.94       1.4720003      0.16054165
      4290.23       1.4836010      0.15966179
      4294.52       1.4602517      0.15759817
      4298.81       1.4462632      0.15671959
      4303.11       1.3353242      0.15585289
      4307.42       1.3083912      0.15499087
      4311.72       1.3555410      0.15413617
      4316.04       1.3955692      0.15328765
      4320.35       1.4589603      0.15244350
      4324.67       1.5144084      0.15160964
      4329.00       1.6083458      0.15077395
      4333.33       1.5634393      0.14995391
      4337.66       1.6194994      0.14913170
      4342.00       1.6123399      0.14831881
      4346.34       1.6624917      0.14751000
      4350.69       1.6322145      0.14670667
      4355.04       1.6932192      0.14477546
      4359.39       1.7225551      0.14398858
      4363.75       1.7475389      0.14320743
      4368.12       1.5696367      0.14242739
      4372.48       1.5266497      0.14165894
      4376.86       1.4315555      0.14089064
      4381.23       1.2875285      0.14013146
      4385.61       1.1512156      0.13937312
      4390.00      0.98923573      0.13862113
      4394.39      0.91478649      0.13787466
      4398.79      0.91984381      0.13713420
      4403.18      0.98896683      0.13639928
      4407.59       1.0273665      0.13566526
      4412.00       1.0924950      0.13494252
      4416.41       1.0637717      0.13421670
      4420.82       1.1458181      0.13231832
      4425.25       1.1959239      0.13161285
      4429.67       1.2361582      0.13091189
      4434.10       1.3387676      0.13021685
      4438.54       1.3826815      0.12952522
      4442.97       1.3443728      0.12883994
      4447.42       1.2508456      0.12815947
      4451.86       1.1419702      0.12748657
      4456.32       1.2259792      0.12681543
      4460.77       1.1447166      0.12615200
      4465.24       1.1435296      0.12549358
      4469.70       1.0616425      0.12484076
      4474.17      0.92173939      0.12419407
      4478.65       1.0280158      0.12354941
      4483.12       1.0761436      0.12179624
      4487.61       1.1190263      0.12116066
      4492.09       1.1838290      0.12053019
      4496.59       1.3118498      0.11990367
      4501.08       1.3863260      0.11928334
      4505.58       1.4143254      0.11866712
      4510.09       1.5308828      0.11805846
      4514.60       1.4948801      0.11834623
      4519.12       1.4712118      0.11774479
      4523.63       1.4165436      0.11613570
      4528.16       1.3642130      0.11553702
      4532.69       1.2397633      0.11494213
      4537.22       1.2295653      0.11435342
      4541.76       1.3423494      0.11377170
      4546.30       1.2633502      0.11319636
      4550.85       1.2455718      0.11262591
      4555.40       1.1670173      0.11206222
      4559.95       1.1593716      0.11055271
      4564.51       1.2433648      0.11000867
      4569.08       1.1378374      0.10946849
      4573.65       1.1161912      0.10972554
      4578.22       1.1708930      0.10917825
      4582.80       1.2503456      0.10863908
      4587.38       1.2734585      0.10718415
      4591.97       1.2634585      0.10666268
      4596.56       1.2940128      0.10614869
      4601.16       1.2149277      0.10563999
      4605.76       1.1854504      0.10514148
      4610.37       1.2056157      0.10464865
      4614.98       1.2183431      0.10398719
      4619.59       1.2283998      0.10349026
      4624.21       1.2276547      0.10299865
      4628.84       1.2002633      0.10251768
      4633.47       1.1219393      0.10204288
      4638.10       1.1057160      0.10069073
      4642.74       1.1091001      0.10021509
      4647.38       1.1245690     0.099746629
      4652.03       1.1206511      0.10002296
      4656.68       1.0640280     0.099568523
      4661.34       1.0475839     0.098272236
      4666.00       1.0751591     0.097815291
      4670.67       1.1189006     0.097367196
      4675.33       1.0850916     0.096928646
      4680.01       1.1117276     0.096407287
      4684.69       1.1315519     0.095961632
      4689.38       1.1352096     0.095524373
      4694.07       1.1557118     0.095096568
      4698.76       1.1181043     0.093902213
      4703.46       1.0917369     0.093496112
      4708.16       1.0496975     0.093758011
      4712.87      0.97335948     0.093343149
      4717.58      0.97851193     0.092176909
      4722.30       1.0152987     0.091786903
      4727.03       1.0299142     0.091404699
      4731.75      0.96257566     0.091663699
      4736.48      0.93478386     0.090526434
      4741.22      0.92523950     0.090148882
      4745.96      0.83810226     0.089783603
      4750.71      0.82293240     0.089426685
      4755.46      0.81379629     0.088943442
      4760.22      0.83817185     0.088582127
      4764.97      0.90881608     0.088232367
      4769.74      0.97254834     0.087152845
      4774.51       1.0155704     0.087429202
      4779.29      0.98978938     0.087086330
      4784.07      0.98686299     0.086753994
      4788.85      0.98727504     0.085699080
      4793.64       1.0162543     0.085986695
      4798.43       1.0709267     0.085659898
      4803.23       1.0663476     0.084639696
      4808.03       1.0999067     0.084311847
      4812.84       1.1378328     0.084606873
      4817.66       1.0567766     0.083619610
      4822.48      0.99014213     0.083298257
      4827.30      0.99278934     0.082990831
      4832.12      0.96503142     0.082636534
      4836.96      0.92758374     0.082324146
      4841.79      0.93081753     0.082026076
      4846.63      0.90264581     0.081099349
      4851.48      0.90602501     0.081387879
      4856.33      0.88819772     0.081099285
      4861.19      0.82954916     0.080190778
      4866.05      0.82739586     0.080487739
      4870.92      0.83589622     0.080207911
      4875.79      0.95743353     0.079318625
      4880.66       1.0279419     0.079069059
      4885.55       1.0963363     0.078734753
      4890.43       1.1898084     0.078482673
      4895.32       1.1475687     0.078245767
      4900.22       1.2111702     0.077924148
      4905.12       1.2180523     0.077684514
      4910.02       1.1988630     0.076840849
      4914.94       1.2561339     0.077149145
      4919.85       1.2782025     0.076922650
      4924.77       1.2831605     0.076092104
      4929.70       1.3421435     0.076408978
      4934.62       1.3808530     0.076196737
      4939.56       1.3591586     0.075377181
      4944.50       1.3268958     0.075705266
      4949.44       1.2879139     0.074909845
      4954.39       1.3051262     0.074696942
      4959.35       1.3640343     0.074464489
      4964.31       1.3682388     0.074250546
      4969.27       1.4411124     0.074051943
      4974.24       1.5376109     0.073823724
      4979.22       1.5963611     0.073626306
      4984.20       1.7049348     0.073415766
      4989.18       1.7269452     0.073218010
      4994.17       1.8387006     0.072493931
      4999.16       1.8691724     0.072826929
      5004.16       1.8306363     0.072106707
      5009.17       1.8238162     0.071946270
      5014.18       1.8081945     0.072274027
      5019.19       1.7462775     0.071580456
      5024.21       1.6695022     0.071920179
      5029.23       1.6342115     0.071229566
      5034.26       1.5701932     0.071092102
      5039.30       1.4560051     0.070897395
      5044.34       1.2829764     0.070761234
      5049.39       1.1598655     0.070580029
      5054.43       1.0507594     0.070445860
      5059.49       1.0022369     0.070276780
      5064.55      0.98367233     0.070146786
      5069.61      0.97677761     0.069491845
      5074.68      0.92307743     0.069862063
      5079.76      0.93505486     0.069219796
      5084.84      0.94444714     0.069590958
      5089.92      0.92574270     0.068961015
      5095.01      0.92513459     0.069336172
      5100.11      0.91994892     0.068715870
      5105.21      0.93821890     0.069096445
      5110.31       1.0139861     0.068484601
      5115.42       1.0478436     0.068376939
      5120.54       1.1850072     0.068266591
      5125.66       1.2947621     0.068163079
      5130.79       1.3586177     0.068058889
      5135.92       1.3841609     0.067483593
      5141.05       1.3383763     0.067865596
      5146.20       1.3974024     0.067298262
      5151.34       1.4666531     0.067685074
      5156.49       1.5167385     0.067126410
      5161.65       1.4396216     0.067517209
      5166.81       1.3488502     0.066968985
      5171.98       1.2344554     0.067360957
      5177.15       1.1080497     0.066823629
      5182.33       1.0292173     0.066748776
      5187.51       1.0159037     0.066690603
      5192.70      0.98340239     0.066619241
      5197.89      0.96985479     0.066570728
      5203.09      0.93448356     0.066503381
      5208.29      0.98997282     0.065985436
      5213.50      0.98530492     0.066400213
      5218.72       1.0246873     0.065884476
      5223.93       1.0184760     0.066311115
      5229.16       1.0248724     0.065797613
      5234.39       1.0212261     0.065768282
      5239.62       1.0620916     0.066192003
      5244.86       1.1372041     0.065695891
      5250.11       1.1209445     0.066129981
      5255.36       1.0923305     0.065635050
      5260.61       1.0134093     0.065623740
      5265.87      0.93587248     0.065587006
      5271.14      0.85765255     0.065576737
      5276.41      0.85877894     0.065112645
      5281.69      0.88462420     0.065542426
      5286.97      0.92903795     0.065546735
      5292.26      0.92673409     0.065084465
      5297.55      0.92775409     0.065525764
      5302.85      0.95114750     0.065079517
      5308.15      0.97327689     0.065082711
      5313.46      0.94862966     0.065535173
      5318.77      0.93857761     0.065091995
