# starting wavelength =        3485.4400
# ending wavelength =        7294.7400
# O2 telluric scale =        0
# O2 telluric shift =        0
# H2O telluric scale =        0
# H2O telluric shift =        0
      3488.37       1.2389526     0.012431066
      3491.86       1.2279915    0.0097543057
      3495.35       1.2220865    0.0090700988
      3498.84       1.2192854    0.0074105285
      3502.34       1.2171775    0.0070204622
      3505.84       1.2138975    0.0060037376
      3509.35       1.2096237    0.0057691597
      3512.86       1.2050566    0.0051533241
      3516.37       1.2016097    0.0048711979
      3519.89       1.1978164    0.0047474705
      3523.41       1.1941492    0.0044679525
      3526.93       1.1904534    0.0043743864
      3530.46       1.1869537    0.0041984900
      3533.99       1.1836517    0.0041212854
      3537.53       1.1793151    0.0040047258
      3541.06       1.1747066    0.0039377316
      3544.60       1.1703306    0.0038568071
      3548.15       1.1680303    0.0038513477
      3551.70       1.1651462    0.0038442631
      3555.25       1.1621759    0.0038372928
      3558.80       1.1599978    0.0038304582
      3562.36       1.1586923    0.0038236427
      3565.92       1.1585187    0.0038170179
      3569.49       1.1595038    0.0038104126
      3573.06       1.1609937    0.0038039937
      3576.64       1.1619833    0.0037975890
      3580.21       1.1632502    0.0037912951
      3583.79       1.1631629    0.0038402953
      3587.38       1.1640064    0.0038340286
      3590.96       1.1640184    0.0038278645
      3594.55       1.1653029    0.0038218288
      3598.15       1.1678042    0.0038737136
      3601.75       1.1721410    0.0038676699
      3605.35       1.1780214    0.0038618356
      3608.96       1.1834058    0.0038559846
      3612.56       1.1869077    0.0038503353
      3616.18       1.1884560    0.0038446767
      3619.79       1.1878966    0.0038391903
      3623.41       1.1880953    0.0038923200
      3627.04       1.1843415    0.0038867553
      3630.66       1.1808812    0.0038812575
      3634.29       1.1786868    0.0038758737
      3637.93       1.1768095    0.0038705499
      3641.57       1.1747241    0.0038653065
      3645.21       1.1713767    0.0038601724
      3648.86       1.1657584    0.0039182099
      3652.50       1.1609089    0.0039131042
      3656.16       1.1563328    0.0039079888
      3659.81       1.1524093    0.0039030688
      3663.47       1.1488688    0.0038981080
      3667.14       1.1452322    0.0039559500
      3670.80       1.1434039    0.0039511242
      3674.48       1.1435359    0.0039462175
      3678.15       1.1446973    0.0039415259
      3681.83       1.1466202    0.0039367576
      3685.51       1.1487360    0.0039320811
      3689.20       1.1502465    0.0039275217
      3692.88       1.1522281    0.0039925816
      3696.58       1.1548272    0.0039880766
      3700.27       1.1573919    0.0039836428
      3703.98       1.1608398    0.0039791997
      3707.68       1.1645006    0.0039749803
      3711.39       1.1679420    0.0039707362
      3715.10       1.1703994    0.0039665521
      3718.81       1.1708601    0.0040297475
      3722.53       1.1704844    0.0040255626
      3726.26       1.1684435    0.0040215448
      3729.98       1.1656157    0.0040948190
      3733.71       1.1642167    0.0040907762
      3737.45       1.1627079    0.0040868258
      3741.18       1.1611182    0.0040829466
      3744.93       1.1610330    0.0040791635
      3748.67       1.1612610    0.0040754633
      3752.42       1.1614317    0.0040718668
      3756.17       1.1619459    0.0040683325
      3759.93       1.1623663    0.0040647980
      3763.69       1.1600837    0.0041443058
      3767.45       1.1570263    0.0041398526
      3771.22       1.1545979    0.0041356202
      3774.99       1.1521353    0.0041313238
      3778.77       1.1512328    0.0042083103
      3782.54       1.1494274    0.0042053541
      3786.33       1.1492163    0.0042023527
      3790.11       1.1501715    0.0041994719
      3793.90       1.1510014    0.0042800930
      3797.70       1.1523657    0.0042759700
      3801.50       1.1545068    0.0042719154
      3805.30       1.1563963    0.0042679823
      3809.10       1.1575497    0.0042640011
      3812.91       1.1579913    0.0042603473
      3816.73       1.1573448    0.0042566669
      3820.54       1.1573571    0.0042532985
      3824.36       1.1597985    0.0043480071
      3828.19       1.1638393    0.0043447666
      3832.02       1.1687872    0.0043414238
      3835.85       1.1720239    0.0043382474
      3839.68       1.1735363    0.0043352779
      3843.52       1.1732332    0.0043324902
      3847.37       1.1705914    0.0043299170
      3851.22       1.1639073    0.0044375659
      3855.07       1.1606203    0.0045275347
      3858.92       1.1557712    0.0045254483
      3862.78       1.1523742    0.0045233377
      3866.64       1.1494619    0.0045214903
      3870.51       1.1457921    0.0045200736
      3874.38       1.1420897    0.0045185987
      3878.26       1.1384375    0.0044048736
      3882.13       1.1358339    0.0044009501
      3886.02       1.1336963    0.0043973194
      3889.90       1.1323100    0.0043937182
      3893.79       1.1305908    0.0045028054
      3897.69       1.1299412    0.0044994836
      3901.59       1.1300232    0.0044967060
      3905.49       1.1308942    0.0044939247
      3909.39       1.1315267    0.0044917506
      3913.30       1.1311846    0.0044896248
      3917.22       1.1300580    0.0044875671
      3921.13       1.1293682    0.0044861516
      3925.06       1.1307612    0.0044847831
      3928.98       1.1360998    0.0043787015
      3932.91       1.1410029    0.0043741778
      3936.84       1.1458743    0.0043702825
      3940.78       1.1479344    0.0043665066
      3944.72       1.1475203    0.0043630375
      3948.67       1.1466492    0.0043598624
      3952.61       1.1444702    0.0043569806
      3956.57       1.1423245    0.0044660416
      3960.52       1.1393837    0.0044637900
      3964.48       1.1358906    0.0044620133
      3968.45       1.1326375    0.0044603680
      3972.42       1.1303820    0.0043607864
      3976.39       1.1278856    0.0043556725
      3980.37       1.1260685    0.0043509687
      3984.35       1.1243498    0.0043464928
      3988.33       1.1221923    0.0043427423
      3992.32       1.1209168    0.0043391992
      3996.31       1.1216267    0.0043360509
      4000.31       1.1245442    0.0043334311
      4004.31       1.1278198    0.0043311737
      4008.31       1.1328175    0.0044405121
      4012.32       1.1351358    0.0043451742
      4016.33       1.1344050    0.0043393618
      4020.35       1.1323072    0.0043339872
      4024.37       1.1304540    0.0043291453
      4028.40       1.1283821    0.0043246403
      4032.42       1.1263691    0.0043209597
      4036.46       1.1258621    0.0043175748
      4040.50       1.1264393    0.0043147637
      4044.54       1.1275733    0.0042249956
      4048.58       1.1261939    0.0042231461
      4052.63       1.1228761    0.0043250688
      4056.68       1.1176646    0.0043190804
      4060.74       1.1119302    0.0043135452
      4064.80       1.1062556    0.0043085290
      4068.86       1.1017871    0.0043041708
      4072.93       1.0990751    0.0043003596
      4077.01       1.0975224    0.0042972507
      4081.08       1.0979591    0.0042074148
      4085.17       1.0982231    0.0042056158
      4089.25       1.0990573    0.0042044423
      4093.34       1.0997981    0.0042998071
      4097.43       1.1019292    0.0042940084
      4101.53       1.1043284    0.0042889832
      4105.63       1.1076743    0.0042844946
      4109.74       1.1117020    0.0041935672
      4113.85       1.1153235    0.0041908675
      4117.96       1.1181825    0.0041885748
      4122.08       1.1188827    0.0041871640
      4126.20       1.1180160    0.0041861979
      4130.33       1.1136450    0.0042760518
      4134.46       1.1105602    0.0042705112
      4138.59       1.1079723    0.0042657655
      4142.73       1.1059046    0.0041749998
      4146.88       1.1053455    0.0041720103
      4151.02       1.1059000    0.0041698065
      4155.18       1.1065905    0.0041684009
      4159.33       1.1074905    0.0041677828
      4163.49       1.1079379    0.0042539871
      4167.65       1.1079750    0.0041615111
      4171.82       1.1081885    0.0041571795
      4175.99       1.1076828    0.0041537174
      4180.17       1.1062330    0.0041510920
      4184.35       1.1047480    0.0041493378
      4188.54       1.1020898    0.0041481951
      4192.72       1.0981698    0.0042338125
      4196.92       1.0944208    0.0041410771
      4201.11       1.0914455    0.0041364520
      4205.31       1.0877722    0.0041327509
      4209.52       1.0842914    0.0041300091
      4213.73       1.0815376    0.0041279582
      4217.94       1.0795756    0.0041270829
      4222.16       1.0808298    0.0040296989
      4226.38       1.0835091    0.0041174735
      4230.61       1.0865656    0.0041126902
      4234.84       1.0892264    0.0041091306
      4239.08       1.0912624    0.0041063241
      4243.32       1.0924289    0.0041046046
      4247.56       1.0920882    0.0040092049
      4251.81       1.0934419    0.0040956550
      4256.06       1.0935444    0.0040901955
      4260.32       1.0936293    0.0040860238
      4264.58       1.0934446    0.0040826830
      4268.84       1.0923597    0.0040804915
      4273.11       1.0901131    0.0039854561
      4277.38       1.0869788    0.0039790037
      4281.66       1.0822694    0.0040646511
      4285.94       1.0767719    0.0040600428
      4290.23       1.0719315    0.0040563723
      4294.52       1.0669655    0.0039660033
      4298.81       1.0647131    0.0039579582
      4303.11       1.0638919    0.0039512308
      4307.42       1.0643306    0.0040358256
      4311.72       1.0662984    0.0040311603
      4316.04       1.0715647    0.0039442822
      4320.35       1.0773602    0.0039351947
      4324.67       1.0830612    0.0039271829
      4329.00       1.0885090    0.0039203360
      4333.33       1.0965671    0.0040041169
      4337.66       1.1020156    0.0039997135
      4342.00       1.1059779    0.0039097213
      4346.34       1.1092012    0.0039008402
      4350.69       1.1104303    0.0038931459
      4355.04       1.1096666    0.0038866946
      4359.39       1.1059551    0.0039699566
      4363.75       1.0977387    0.0038817807
      4368.12       1.0921407    0.0038719773
      4372.48       1.0872063    0.0038637104
      4376.86       1.0830330    0.0038567179
      4381.23       1.0791469    0.0038630009
      4385.61       1.0760880    0.0038510283
      4390.00       1.0741842    0.0038407711
      4394.39       1.0728575    0.0038318395
      4398.79       1.0723658    0.0038245345
      4403.18       1.0733419    0.0037447517
      4407.59       1.0751351    0.0038176294
      4412.00       1.0754030    0.0038068368
      4416.41       1.0756553    0.0037977985
      4420.82       1.0762333    0.0037901577
      4425.25       1.0776547    0.0037108101
      4429.67       1.0795324    0.0037814324
      4434.10       1.0810953    0.0037707531
      4438.54       1.0820006    0.0037615886
      4442.97       1.0826676    0.0036812350
      4447.42       1.0818539    0.0036754775
      4451.86       1.0834048    0.0037428622
      4456.32       1.0848212    0.0037322641
      4460.77       1.0856390    0.0037235315
      4465.24       1.0858003    0.0036440637
      4469.70       1.0839844    0.0037139594
      4474.17       1.0805545    0.0037022203
      4478.65       1.0766939    0.0036922262
      4483.12       1.0722424    0.0036120180
      4487.61       1.0695478    0.0036055835
      4492.09       1.0670915    0.0036708168
      4496.59       1.0661110    0.0036597676
      4501.08       1.0657132    0.0035791134
      4505.58       1.0645102    0.0035717927
      4510.09       1.0632211    0.0035661135
      4514.60       1.0624381    0.0036259273
      4519.12       1.0620917    0.0035450601
      4523.63       1.0618062    0.0035372045
      4528.16       1.0622148    0.0035308463
      4532.69       1.0626360    0.0035909871
      4537.22       1.0636549    0.0035099379
      4541.76       1.0646962    0.0035015250
      4546.30       1.0651867    0.0034946708
      4550.85       1.0659134    0.0034895511
      4555.40       1.0659244    0.0034735793
      4559.95       1.0654480    0.0034647209
      4564.51       1.0654656    0.0034576444
      4569.08       1.0652369    0.0034524046
      4573.65       1.0653922    0.0034361406
      4578.22       1.0655369    0.0034269632
      4582.80       1.0648644    0.0034196272
      4587.38       1.0637217    0.0034141688
      4591.97       1.0619988    0.0033975528
      4596.56       1.0603071    0.0033882162
      4601.16       1.0590481    0.0033807623
      4605.76       1.0587415    0.0033014976
      4610.37       1.0573710    0.0033575791
      4614.98       1.0558824    0.0033484063
      4619.59       1.0532952    0.0033412119
      4624.21       1.0486577    0.0032615036
      4628.84       1.0480375    0.0033167090
      4633.47       1.0496619    0.0033077788
      4638.10       1.0535776    0.0033008770
      4642.74       1.0616046    0.0032204092
      4647.38       1.0661878    0.0032749196
      4652.03       1.0695655    0.0032663489
      4656.68       1.0717722    0.0031901415
      4661.34       1.0725029    0.0031785949
      4666.00       1.0739623    0.0032325102
      4670.67       1.0735724    0.0032244415
      4675.33       1.0711182    0.0031468356
      4680.01       1.0694478    0.0031358190
      4684.69       1.0668331    0.0031894094
      4689.38       1.0632876    0.0031153131
      4694.07       1.0604513    0.0031028175
      4698.76       1.0542059    0.0031544003
      4703.46       1.0494437    0.0030834335
      4708.16       1.0444739    0.0030698118
      4712.87       1.0411350    0.0030584211
      4717.58       1.0412822    0.0031099915
      4722.30       1.0435920    0.0030373496
      4727.03       1.0461159    0.0030249660
      4731.75       1.0479472    0.0030147650
      4736.48       1.0485273    0.0030050399
      4741.22       1.0476312    0.0029920670
      4745.96       1.0457128    0.0029816454
      4750.71       1.0430157    0.0029766634
      4755.46       1.0413395    0.0029643138
      4760.22       1.0397950    0.0029540283
      4764.97       1.0386089    0.0028912421
      4769.74       1.0369921    0.0029379724
      4774.51       1.0363736    0.0029267981
      4779.29       1.0359029    0.0029169880
      4784.07       1.0360408    0.0029065356
      4788.85       1.0351376    0.0028928708
      4793.64       1.0335756    0.0028813306
      4798.43       1.0314775    0.0028696365
      4803.23       1.0302166    0.0028546292
      4808.03       1.0291471    0.0028421346
      4812.84       1.0274977    0.0027777169
      4817.66       1.0279976    0.0028158036
      4822.48       1.0294024    0.0028023519
      4827.30       1.0340623    0.0027373248
      4832.12       1.0372837    0.0027738986
      4836.96       1.0413520    0.0027597728
      4841.79       1.0465077    0.0026948264
      4846.63       1.0507864    0.0027303159
      4851.48       1.0540636    0.0027155685
      4856.33       1.0560395    0.0026511952
      4861.19       1.0585840    0.0026872092
      4866.05       1.0599344    0.0026726720
      4870.92       1.0596342    0.0026091654
      4875.79       1.0601719    0.0025996513
      4880.66       1.0595343    0.0025794076
      4885.55       1.0583583    0.0025681953
      4890.43       1.0566830    0.0025591461
      4895.32       1.0530187    0.0025393520
      4900.22       1.0503045    0.0025284091
      4905.12       1.0477201    0.0025196236
      4910.02       1.0469537    0.0024996221
      4914.94       1.0462269    0.0024887678
      4919.85       1.0458132    0.0024800872
      4924.77       1.0455305    0.0024597601
      4929.70       1.0436233    0.0024491476
      4934.62       1.0413934    0.0024406434
      4939.56       1.0373828    0.0024196731
      4944.50       1.0341725    0.0024093024
      4949.44       1.0303585    0.0023500510
      4954.39       1.0265202    0.0023794287
      4959.35       1.0241523    0.0023693119
      4964.31       1.0223029    0.0023099560
      4969.27       1.0216568    0.0023389121
      4974.24       1.0220402    0.0023292487
      4979.22       1.0232414    0.0022697849
      4984.20       1.0238557    0.0022982768
      4989.18       1.0242666    0.0022890579
      4994.17       1.0255038    0.0022685661
      4999.16       1.0259765    0.0022576721
      5004.16       1.0259578    0.0022011843
      5009.17       1.0262359    0.0022272489
      5014.18       1.0259227    0.0022169358
      5019.19       1.0256264    0.0021601320
      5024.21       1.0249260    0.0021860356
      5029.23       1.0236253    0.0021322997
      5034.26       1.0221817    0.0021198223
      5039.30       1.0204025    0.0021468371
      5044.34       1.0197495    0.0020924847
      5049.39       1.0185963    0.0020800944
      5054.43       1.0174768    0.0020663511
      5059.49       1.0167511    0.0020545983
      5064.55       1.0168653    0.0020816191
      5069.61       1.0165871    0.0020347810
      5074.68       1.0157200    0.0020255428
      5079.76       1.0134434    0.0020167541
      5084.84       1.0124473    0.0020056088
      5089.92       1.0115551    0.0019961106
      5095.01       1.0108726    0.0019814086
      5100.11       1.0103276    0.0019684792
      5105.21       1.0100699    0.0019507805
      5110.31       1.0099457    0.0019346334
      5115.42       1.0103214    0.0019202520
      5120.54       1.0114293    0.0018978811
      5125.66       1.0118644    0.0018826021
      5130.79       1.0128891    0.0018643820
      5135.92       1.0126194    0.0018495330
      5141.05       1.0120466    0.0018365315
      5146.20       1.0110503    0.0018167469
      5151.34       1.0099890    0.0018032395
      5156.49       1.0090555    0.0017574743
      5161.65       1.0085468    0.0017719521
      5166.81       1.0078719    0.0017263035
      5171.98       1.0063525    0.0017419511
      5177.15       1.0049126    0.0017294752
      5182.33       1.0034536    0.0016863279
      5187.51       1.0031324    0.0017001569
      5192.70       1.0040499    0.0016572786
      5197.89       1.0049984    0.0016720367
      5203.09       1.0063046    0.0016291379
      5208.29       1.0074580    0.0016448499
      5213.50       1.0082129    0.0016331365
      5218.72       1.0087346    0.0015929032
      5223.93       1.0085672    0.0016074405
      5229.16       1.0074893    0.0015680765
      5234.39       1.0062111    0.0015835414
      5239.62       1.0060975    0.0015431583
      5244.86       1.0062549    0.0015350190
      5250.11       1.0061206    0.0015181889
      5255.36       1.0057001    0.0015093421
      5260.61       1.0049723    0.0015218630
      5265.87       1.0036449    0.0014826898
      5271.14       1.0024841    0.0014948165
      5276.41       1.0020370    0.0014555312
      5281.69       1.0014999    0.0014470318
      5286.97       1.0011943    0.0014290323
      5292.26       1.0008419    0.0014204407
      5297.55       1.0001461    0.0014036718
      5302.85      0.99999941    0.0013948540
      5308.15       1.0003318    0.0013784893
      5313.46       1.0010875    0.0013692485
      5318.77       1.0024889    0.0013330533
      5324.09       1.0031568    0.0013440761
      5329.42       1.0042323    0.0013366305
      5334.75       1.0065915    0.0013196622
      5340.08       1.0077887    0.0013118672
      5345.42       1.0087946    0.0012957454
      5350.77       1.0086342    0.0012880811
      5356.12       1.0081211    0.0012731913
