# starting wavelength =        3247.6800
# ending wavelength =        10302.300
# O2 telluric scale =        0
# O2 telluric shift =        0
# H2O telluric scale =        0
# H2O telluric shift =        0
      3249.39     0.079478523     0.016659170
      3252.64     0.086967770     0.014017833
      3255.89     0.091701429     0.011983993
      3259.14     0.095372195     0.010041122
      3262.40     0.099169422    0.0088812467
      3265.67      0.10133985    0.0079868274
      3268.93      0.10329043    0.0074749814
      3272.20      0.10222519    0.0068873933
      3275.47     0.099804001    0.0063197225
      3278.75      0.10008610    0.0059820110
      3282.03     0.099356216    0.0057084348
      3285.31      0.10013970    0.0055512973
      3288.60      0.10149295    0.0053523231
      3291.88      0.10242940    0.0051826168
      3295.18      0.10320960    0.0050515129
      3298.47      0.10400294    0.0049283064
      3301.77      0.10313134    0.0048631834
      3305.07      0.10202187    0.0047600502
      3308.38      0.10241934    0.0046657925
      3311.69      0.10169548    0.0046505083
      3315.00      0.10145267    0.0046269688
      3318.31     0.098206041    0.0045722826
      3321.63     0.097254472    0.0045887442
      3324.95     0.093957850    0.0045648163
      3328.28     0.094553113    0.0045412093
      3331.61     0.094675390    0.0045263299
      3334.94     0.095362197    0.0045019261
      3338.27     0.093138058    0.0044779555
      3341.61     0.091301942    0.0044937960
      3344.95     0.090991383    0.0044386781
      3348.30     0.091111922    0.0044557583
      3351.65     0.092569833    0.0044300424
      3355.00     0.094043024    0.0044047216
      3358.35     0.095379328    0.0043921357
      3361.71     0.095153597    0.0043660512
      3365.07     0.096076732    0.0043404852
      3368.44     0.093934817    0.0043556298
      3371.81     0.095108712    0.0043020704
      3375.18     0.096984855    0.0042762968
      3378.56     0.098606507    0.0042907027
      3381.94      0.10176517    0.0042656235
      3385.32      0.10111805    0.0042410339
      3388.70      0.10213628    0.0042259968
      3392.09      0.10242956    0.0042007167
      3395.48      0.10100129    0.0041758849
      3398.88      0.10420174    0.0041906100
      3402.28      0.10436617    0.0041362801
      3405.68      0.10531108    0.0041113061
      3409.09      0.10743505    0.0040868142
      3412.49      0.10702294    0.0041007648
      3415.91      0.10642171    0.0040754607
      3419.32      0.10689552    0.0040228581
      3422.74      0.10627825    0.0040373505
      3426.17      0.10614668    0.0040119840
      3429.59      0.10632050    0.0039871545
      3433.02      0.10762979    0.0040010726
      3436.45      0.10822074    0.0039496801
      3439.89      0.10877761    0.0039248923
      3443.33      0.10984117    0.0039381754
      3446.78      0.11018373    0.0039141933
      3450.22      0.11058289    0.0038906136
      3453.67      0.11173509    0.0038397084
      3457.13      0.11115936    0.0038526861
      3460.58      0.11204620    0.0038292168
      3464.04      0.11267392    0.0038062956
      3467.51      0.11341989    0.0038202238
      3470.98      0.11269303    0.0037968000
      3474.45      0.11335763    0.0037468356
      3477.92      0.11460570    0.0037620357
      3481.40      0.11641692    0.0037387793
      3484.88      0.11595702    0.0037160054
      3488.37      0.11754171    0.0036938495
      3491.86      0.11858174    0.0037082478
      3495.35      0.11971463    0.0036603758
      3498.84      0.12014109    0.0036384568
      3502.34      0.11901618    0.0036171041
      3505.84      0.11845812    0.0036314856
      3509.35      0.11904504    0.0036110243
      3512.86      0.11926302    0.0035911274
      3516.37      0.11965362    0.0035787128
      3519.89      0.12072992    0.0035585830
      3523.41      0.12205102    0.0035390844
      3526.93      0.12123603    0.0035912645
      3530.46      0.12265411    0.0036508377
      3533.99      0.12350750    0.0036071008
      3537.53      0.12287920    0.0035140840
      3541.06      0.12425661    0.0034556857
      3544.60      0.12637432    0.0034782055
      3548.15      0.12643090    0.0034746835
      3551.70      0.12666337    0.0034843460
      3555.25      0.12717052    0.0035019104
      3558.80      0.12845362    0.0035569252
      3562.36      0.12930134    0.0035816280
      3565.92      0.12810646    0.0036051904
      3569.49      0.12739161    0.0035850093
      3573.06      0.12762746    0.0036398577
      3576.64      0.13150902    0.0036480329
      3580.21      0.13227097    0.0036470560
      3583.79      0.13195388    0.0036330351
      3587.38      0.13227742    0.0036516358
      3590.96      0.13179534    0.0036192932
      3594.55      0.13246037    0.0035788869
      3598.15      0.13533155    0.0035327458
      3601.75      0.13557357    0.0034964000
      3605.35      0.13652847    0.0034450750
      3608.96      0.13627643    0.0033946919
      3612.56      0.13845479    0.0033478286
      3616.18      0.14147556    0.0033077160
      3619.79      0.14333294    0.0033010238
      3623.41      0.14537332    0.0032868193
      3627.04      0.14755576    0.0032989111
      3630.66      0.15150452    0.0033580280
      3634.29      0.15265648    0.0034022392
      3637.93      0.15401279    0.0033234655
      3641.57      0.15507790    0.0032551386
      3645.21      0.15761340    0.0032499351
      3648.86      0.15983796    0.0032455495
      3652.50      0.16168889    0.0032730114
      3656.16      0.16481199    0.0032690357
      3659.81      0.16644135    0.0032657830
      3663.47      0.16731794    0.0032632731
      3667.14      0.16742211    0.0032613907
      3670.80      0.16916501    0.0032903008
      3674.48      0.16934801    0.0032896910
      3678.15      0.17026640    0.0032896914
      3681.83      0.17025597    0.0032903962
      3685.51      0.17137841    0.0032916685
      3689.20      0.17235970    0.0033230563
      3692.88      0.17270539    0.0033246016
      3696.58      0.17353594    0.0033268712
      3700.27      0.17342356    0.0033296482
      3703.98      0.17304632    0.0032989846
      3707.68      0.17335517    0.0033346200
      3711.39      0.17328829    0.0033380560
      3715.10      0.17336709    0.0033421590
      3718.81      0.17289252    0.0033466499
      3722.53      0.17106158    0.0033517780
      3726.26      0.17113126    0.0033878364
      3729.98      0.17107310    0.0033938485
      3733.71      0.16952118    0.0034003857
      3737.45      0.17047438    0.0034073243
      3741.18      0.17231363    0.0034147641
      3744.93      0.17517737    0.0034225698
      3748.67      0.17706575    0.0034634708
      3752.42      0.18170423    0.0034713884
      3756.17      0.18216012    0.0034798010
      3759.93      0.18243202    0.0034885928
      3763.69      0.18410820    0.0034977617
      3767.45      0.18585267    0.0035072745
      3771.22      0.18716827    0.0035495679
      3774.99      0.19231309    0.0035597423
      3778.77      0.19736331    0.0035703279
      3782.54      0.19914428    0.0035811198
      3786.33      0.20185300    0.0035922784
      3790.11      0.20541029    0.0036036062
      3793.90      0.20469101    0.0036153258
      3797.70      0.20328575    0.0036624300
      3801.50      0.20078570    0.0036740768
      3805.30      0.19702766    0.0036859510
      3809.10      0.19407556    0.0036980186
      3812.91      0.19288187    0.0037102758
      3816.73      0.19013707    0.0037226943
      3820.54      0.18873803    0.0037353654
      3824.36      0.18712868    0.0037836881
      3828.19      0.18738675    0.0037968353
      3832.02      0.18765416    0.0038099518
      3835.85      0.18906731    0.0038233076
      3839.68      0.19163412    0.0038366258
      3843.52      0.19155872    0.0038979169
      3847.37      0.19265881    0.0039115364
      3851.22      0.19286338    0.0039253458
      3855.07      0.19454120    0.0039783455
      3858.92      0.19757933    0.0039923131
      3862.78      0.20014329    0.0040062711
      3866.64      0.20258294    0.0040203007
      3870.51      0.20467994    0.0040341801
      3874.38      0.20676635    0.0040480962
      3878.26      0.20705597    0.0040618346
      3882.13      0.20677061    0.0040755754
      3886.02      0.20854231    0.0041330366
      3889.90      0.20907480    0.0042505431
      3893.79      0.21189901    0.0043950943
      3897.69      0.21473178    0.0045791260
      3901.59      0.21385218    0.0042550799
      3905.49      0.21409815    0.0042494834
      3909.39      0.21572786    0.0043794778
      3913.30      0.21750569    0.0045177594
      3917.22      0.22177434    0.0046772417
      3921.13      0.22605800    0.0049298917
      3925.06      0.22754291    0.0052595798
      3928.98      0.22502635    0.0057046583
      3932.91      0.22224966    0.0063289577
      3936.84      0.22346274    0.0072357640
      3940.78      0.22603347    0.0067361613
      3944.72      0.22849546    0.0055683637
      3948.67      0.23160993    0.0057180258
      3952.61      0.23512336    0.0059742450
      3956.57      0.24083961    0.0061249993
      3960.52      0.24662417    0.0062803806
      3964.48      0.25599782    0.0083422561
      3968.45      0.26536085    0.0083222247
      3972.42      0.27046500    0.0071329878
      3976.39      0.27567164    0.0062977930
      3980.37      0.28118568    0.0058896641
      3984.35      0.28465990    0.0055820353
      3988.33      0.29059772    0.0053134561
      3992.32      0.29539605    0.0051225412
      3996.31      0.30034666    0.0051562810
      4000.31      0.30189845    0.0056101227
      4004.31      0.30208617    0.0052501886
      4008.31      0.30180244    0.0049948876
      4012.32      0.30264996    0.0047883393
      4016.33      0.30404405    0.0046322273
      4020.35      0.30572526    0.0045676568
      4024.37      0.30729669    0.0045701318
      4028.40      0.30853904    0.0045720648
      4032.42      0.30864056    0.0045735568
      4036.46      0.30976582    0.0045745267
      4040.50      0.31286118    0.0045752205
      4044.54      0.31204590    0.0045753295
      4048.58      0.31125387    0.0045751886
      4052.63      0.31434284    0.0045745986
      4056.68      0.31728195    0.0045735948
      4060.74      0.32190754    0.0045163146
      4064.80      0.32462162    0.0045135242
      4068.86      0.32467929    0.0045103610
      4072.93      0.32340525    0.0045068668
      4077.01      0.32034550    0.0045030191
      4081.08      0.31773535    0.0044988820
      4085.17      0.31651142    0.0044945106
      4089.25      0.31581534    0.0045457992
      4093.34      0.31625089    0.0045405735
      4097.43      0.31593085    0.0045350356
      4101.53      0.31614478    0.0044760198
      4105.63      0.31552926    0.0044688394
      4109.74      0.31364203    0.0044615438
      4113.85      0.31499073    0.0044538777
      4117.96      0.31655080    0.0044461117
      4122.08      0.31722549    0.0044380155
      4126.20      0.31889018    0.0044298565
      4130.33      0.32427578    0.0044214028
      4134.46      0.32851293    0.0044130386
      4138.59      0.33128283    0.0043529829
      4142.73      0.33022078    0.0043964923
      4146.88      0.32840267    0.0043860485
      4151.02      0.32690091    0.0043756479
      4155.18      0.32845980    0.0043650230
      4159.33      0.33196675    0.0043544604
      4163.49      0.33488311    0.0043437113
      4167.65      0.33548373    0.0042821209
      4171.82      0.33632548    0.0042715044
      4175.99      0.33829128    0.0042610998
      4180.17      0.34026381    0.0042504653
      4184.35      0.34108830    0.0042400874
      4188.54      0.34273157    0.0042750813
      4192.72      0.34479853    0.0042629841
      4196.92      0.34254059    0.0042003738
      4201.11      0.34079437    0.0041886449
      4205.31      0.33899443    0.0041767691
      4209.52      0.34202102    0.0041652349
      4213.73      0.34402658    0.0041536169
      4217.94      0.34515773    0.0041423829
      4222.16      0.34394606    0.0041239066
      4226.38      0.34392437    0.0041111807
      4230.61      0.34767434    0.0040985698
      4234.84      0.35397707    0.0040863910
      4239.08      0.35473376    0.0040742116
      4243.32      0.35597865    0.0040625135
      4247.56      0.35954248    0.0039988115
      4251.81      0.36290387    0.0040310261
      4256.06      0.36719063    0.0040180921
      4260.32      0.36940026    0.0040055787
      4264.58      0.36974124    0.0039933263
      4268.84      0.36703800    0.0039321109
      4273.11      0.36099596    0.0039188021
      4277.38      0.35264628    0.0039059016
      4281.66      0.34756156    0.0039373794
      4285.94      0.34751768    0.0039251508
      4290.23      0.34761387    0.0038658393
      4294.52      0.34887869    0.0038526625
      4298.81      0.34978419    0.0038398532
      4303.11      0.34772913    0.0038275542
      4307.42      0.34689783    0.0038589279
      4311.72      0.35046246    0.0038013441
      4316.04      0.35182449    0.0037884984
      4320.35      0.35097574    0.0037761895
      4324.67      0.35659419    0.0037644557
      4329.00      0.36547913    0.0037105601
      4333.33      0.37238921    0.0037400622
      4337.66      0.38030983    0.0037279334
      4342.00      0.38830385    0.0037165117
      4346.34      0.39282231    0.0036635682
      4350.69      0.39494399    0.0036535114
      4355.04      0.39399743    0.0036830369
      4359.39      0.39368957    0.0036721553
      4363.75      0.39773629    0.0036618905
      4368.12      0.40046578    0.0036111932
      4372.48      0.40160170    0.0036025524
      4376.86      0.40371572    0.0036320068
      4381.23      0.40204842    0.0036225955
      4385.61      0.40110141    0.0035734632
      4390.00      0.40236014    0.0035658455
      4394.39      0.40479475    0.0035589765
      4398.79      0.40738450    0.0035485553
      4403.18      0.41082256    0.0035411970
      4407.59      0.41525637    0.0035346627
      4412.00      0.42139854    0.0035289619
      4416.41      0.42887735    0.0035206707
      4420.82      0.43424350    0.0035146962
      4425.25      0.43828070    0.0035096106
      4429.67      0.43835140    0.0035054280
      4434.10      0.43638315    0.0034992049
      4438.54      0.43491388    0.0034947017
      4442.97      0.43370912    0.0034911265
      4447.42      0.43410082    0.0034492858
      4451.86      0.43338555    0.0034454682
      4456.32      0.43157770    0.0034818066
      4460.77      0.42974174    0.0034800889
      4465.24      0.42869297    0.0034399322
      4469.70      0.43090703    0.0034379522
      4474.17      0.43329595    0.0034765550
      4478.65      0.43594132    0.0035650013
      4483.12      0.44098873    0.0035170840
      4487.61      0.44523274    0.0034545409
      4492.09      0.44892378    0.0034603744
      4496.59      0.45237694    0.0035107640
      4501.08      0.45489039    0.0035755547
      4505.58      0.45621027    0.0036855374
      4510.09      0.45596423    0.0037341132
      4514.60      0.45275659    0.0037937187
      4519.12      0.45162199    0.0038395075
      4523.63      0.44879747    0.0038502678
      4528.16      0.44880744    0.0038206163
      4532.69      0.45111453    0.0037751853
      4537.22      0.45408667    0.0037179085
      4541.76      0.45760991    0.0036516584
      4546.30      0.45960785    0.0035895963
      4550.85      0.46296412    0.0035155180
      4555.40      0.46816453    0.0035367940
      4559.95      0.47330136    0.0035734823
      4564.51      0.48066129    0.0037066592
      4569.08      0.48593849    0.0036107769
      4573.65      0.49402901    0.0035437306
      4578.22      0.50162195    0.0035555800
      4582.80      0.50899999    0.0036104328
      4587.38      0.51728569    0.0035891765
      4591.97      0.52541613    0.0036030808
      4596.56      0.53115458    0.0036185868
      4601.16      0.53688659    0.0036416290
      4605.76      0.54315934    0.0036577422
      4610.37      0.54985064    0.0036755335
      4614.98      0.55831830    0.0037017111
      4619.59      0.56741775    0.0037200105
      4624.21      0.57596527    0.0037045928
      4628.84      0.58085602    0.0037692427
      4633.47      0.58506447    0.0037900513
      4638.10      0.59242857    0.0037761692
      4642.74      0.59927284    0.0038447993
      4647.38      0.60679955    0.0038682668
      4652.03      0.61608521    0.0038558968
      4656.68      0.62529664    0.0039287106
      4661.34      0.63377481    0.0039192156
      4666.00      0.64002566    0.0039438858
      4670.67      0.64448547    0.0040211083
      4675.33      0.64589491    0.0040130878
      4680.01      0.64866076    0.0040924262
      4684.69      0.65060261    0.0040872127
      4689.38      0.65264356    0.0041156680
      4694.07      0.65070010    0.0041999204
      4698.76      0.64877169    0.0041958459
      4703.46      0.64777424    0.0042274952
      4708.16      0.64761445    0.0042813048
      4712.87      0.64816424    0.0043139421
      4717.58      0.64792538    0.0043719155
      4722.30      0.65175973    0.0044056452
      4727.03      0.65543918    0.0044418259
      4731.75      0.65927507    0.0045026106
      4736.48      0.66197266    0.0045399396
      4741.22      0.66302091    0.0045447648
      4745.96      0.66326136    0.0046433593
      4750.71      0.65832186    0.0046487647
      4755.46      0.65231565    0.0047519269
      4760.22      0.64696589    0.0047577742
      4764.97      0.63901291    0.0048025277
      4769.74      0.63339154    0.0049087575
      4774.51      0.62723974    0.0049172614
      4779.29      0.61787785    0.0050276560
      4784.07      0.60941258    0.0050361174
      4788.85      0.60321689    0.0050853435
      4793.64      0.59918031    0.0051585565
      4798.43      0.59715063    0.0052084807
      4803.23      0.59791596    0.0052840413
      4808.03      0.59878422    0.0053344001
      4812.84      0.60156099    0.0054120280
      4817.66      0.59946003    0.0054626181
      4822.48      0.59686261    0.0054706048
      4827.30      0.60319362    0.0078513966
      4832.12      0.60180211    0.0081073927
      4836.96      0.60297194    0.0080364815
      4841.79      0.60082330    0.0082997831
      4846.63      0.59398974    0.0082224351
      4851.48      0.59284866    0.0082979317
      4856.33      0.59294251    0.0084073753
      4861.19      0.59725175    0.0084808994
      4866.05      0.60661537    0.0085916403
      4870.92      0.61785250    0.0086639171
      4875.79      0.62957409    0.0087750437
      4880.66      0.63700137    0.0088447826
      4885.55      0.63950740    0.0089558739
      4890.43      0.63932178    0.0090222465
      4895.32      0.64109871    0.0091327250
      4900.22      0.63830100    0.0091970013
      4905.12      0.62447986    0.0093060041
      4910.02      0.61998574    0.0093682691
      4914.94      0.62185895    0.0094729549
      4919.85      0.63504046    0.0095334059
      4924.77      0.67978065    0.0067761260
      4929.70      0.69331230    0.0068475563
      4934.62      0.70422327    0.0068866059
      4939.56      0.71456423    0.0069548523
      4944.50      0.71961738    0.0069921026
      4949.44      0.72292564    0.0069751831
      4954.39      0.72869863    0.0070923769
      4959.35      0.72342238    0.0070718095
      4964.31      0.71806984    0.0071864912
      4969.27      0.71191597    0.0073692234
      4974.24      0.68745620    0.0073852383
      4979.22      0.66578260    0.0073461751
      4984.20      0.65819627    0.0073268498
      4989.18      0.65553859    0.0075234337
