# starting wavelength =        3247.6800
# ending wavelength =        9067.9900
# O2 telluric scale =        0
# O2 telluric shift =        0
# H2O telluric scale =        0
# H2O telluric shift =        0
      3249.39      0.12132011    0.0059397252
      3252.64      0.12400582    0.0058325474
      3255.89      0.12455103    0.0056409321
      3259.14      0.12535307    0.0054472304
      3262.40      0.12746152    0.0053530614
      3265.67      0.13044203    0.0051847745
      3268.93      0.13189010    0.0051020889
      3272.20      0.13251731    0.0049553946
      3275.47      0.13445588    0.0048232830
      3278.75      0.13714411    0.0047663978
      3282.03      0.13897165    0.0046269941
      3285.31      0.14114123    0.0045784472
      3288.60      0.14358232    0.0044618266
      3291.88      0.14417271    0.0043419648
      3295.18      0.14565129    0.0043040449
      3298.47      0.14843868    0.0042065131
      3301.77      0.15018440    0.0041734777
      3305.07      0.15127886    0.0040658241
      3308.38      0.15247003    0.0039770081
      3311.69      0.15354437    0.0039518506
      3315.00      0.15251361    0.0038747745
      3318.31      0.15150229    0.0037800881
      3321.63      0.15181971    0.0037599998
      3324.95      0.15158397    0.0036856624
      3328.28      0.15143934    0.0036619850
      3331.61      0.15005798    0.0035835874
      3334.94      0.14911330    0.0034890857
      3338.27      0.14914351    0.0034620150
      3341.61      0.14875125    0.0033775995
      3344.95      0.14747663    0.0032954315
      3348.30      0.14642311    0.0032543726
      3351.65      0.14458084    0.0031734696
      3355.00      0.14362861    0.0031430331
      3358.35      0.14384930    0.0030674636
      3361.71      0.14577174    0.0029856836
      3365.07      0.14576844    0.0029594477
      3368.44      0.14650399    0.0028949439
      3371.81      0.14794166    0.0028350423
      3375.18      0.14814211    0.0028184518
      3378.56      0.14711455    0.0027521815
      3381.94      0.14851027    0.0027043249
      3385.32      0.15020612    0.0026938667
      3388.70      0.15173842    0.0026488276
      3392.09      0.15520516    0.0026052674
      3395.48      0.15664334    0.0025842674
      3398.88      0.15769461    0.0025434267
      3402.28      0.15693071    0.0025021451
      3405.68      0.15704219    0.0024943353
      3409.09      0.15692550    0.0024524638
      3412.49      0.15759850    0.0023984351
      3415.91      0.15823186    0.0023916985
      3419.32      0.15690462    0.0023553088
      3422.74      0.15656796    0.0023183214
      3426.17      0.15710307    0.0023139560
      3429.59      0.15918917    0.0022801559
      3433.02      0.16015266    0.0022329983
      3436.45      0.16006842    0.0022299567
      3439.89      0.15934899    0.0021957852
      3443.33      0.15981428    0.0021622030
      3446.78      0.15968995    0.0021594877
      3450.22      0.15962569    0.0021145199
      3453.67      0.15920102    0.0020855076
      3457.13      0.16003906    0.0020844305
      3460.58      0.16025166    0.0020577892
      3464.04      0.16037912    0.0020319424
      3467.51      0.16067916    0.0020318136
      3470.98      0.16180289    0.0020050428
      3474.45      0.16273138    0.0019641726
      3477.92      0.16422562    0.0019647664
      3481.40      0.16660666    0.0019369492
      3484.88      0.16673116    0.0019106901
      3488.37      0.16677518    0.0018854211
      3491.86      0.16627280    0.0018851699
      3495.35      0.16617513    0.0018477245
      3498.84      0.16570295    0.0018219643
      3502.34      0.16684373    0.0018208693
      3505.84      0.16871126    0.0017980220
      3509.35      0.17074693    0.0017779284
      3512.86      0.17232672    0.0017817921
      3516.37      0.17484931    0.0017639939
      3519.89      0.17789967    0.0017493280
      3523.41      0.17975586    0.0017204477
      3526.93      0.18071484    0.0017281211
      3530.46      0.18100264    0.0017138583
      3533.99      0.18153283    0.0017000358
      3537.53      0.18171914    0.0017067160
      3541.06      0.18141161    0.0016908849
      3544.60      0.18061711    0.0016767671
      3548.15      0.17871227    0.0016613098
      3551.70      0.17704308    0.0016664134
      3555.25      0.17372212    0.0016329191
      3558.80      0.17137745    0.0016132573
      3562.36      0.17028414    0.0015925845
      3565.92      0.16947963    0.0015944303
      3569.49      0.16874193    0.0015725020
      3573.06      0.16723043    0.0015538820
      3576.64      0.16610784    0.0015575147
      3580.21      0.16653642    0.0015404473
      3583.79      0.16561317    0.0015250546
      3587.38      0.16647906    0.0015089229
      3590.96      0.16856461    0.0014985762
      3594.55      0.17253474    0.0014810091
      3598.15      0.17535485    0.0014648150
      3601.75      0.17757725    0.0014495491
      3605.35      0.18099384    0.0014546706
      3608.96      0.18477786    0.0014386672
      3612.56      0.18704367    0.0014248923
      3616.18      0.18775198    0.0014126866
      3619.79      0.18933757    0.0014184630
      3623.41      0.19146628    0.0014044456
      3627.04      0.19374434    0.0013911454
      3630.66      0.19600524    0.0013783303
      3634.29      0.19749701    0.0013847364
      3637.93      0.20036509    0.0013711074
      3641.57      0.20487518    0.0013571365
      3645.21      0.20847782    0.0013301213
      3648.86      0.21112756    0.0013363631
      3652.50      0.21304931    0.0013227071
      3656.16      0.21338570    0.0013105940
      3659.81      0.21379911    0.0012982879
      3663.47      0.21378370    0.0012873215
      3667.14      0.21615192    0.0012938184
      3670.80      0.22099600    0.0012800000
      3674.48      0.22194333    0.0012686682
      3678.15      0.22041089    0.0012579015
      3681.83      0.22069749    0.0012639092
      3685.51      0.22291438    0.0012488828
      3689.20      0.22140563    0.0012367000
      3692.88      0.21517757    0.0012269596
      3696.58      0.21663656    0.0012115520
      3700.27      0.22026660    0.0012143400
      3703.98      0.22375880    0.0012001090
      3707.68      0.22401175    0.0011880126
      3711.39      0.22472010    0.0011743234
      3715.10      0.22569847    0.0011610303
      3718.81      0.22220194    0.0011506803
      3722.53      0.21892468    0.0011568874
      3726.26      0.21665059    0.0011310941
      3729.98      0.21407482    0.0011194748
      3733.71      0.21310903    0.0011078714
      3737.45      0.21257220    0.0010977312
      3741.18      0.21142034    0.0010880883
      3744.93      0.20886111    0.0010795719
      3748.67      0.20714356    0.0010730857
      3752.42      0.21069157    0.0010664275
      3756.17      0.21767127    0.0010476416
      3759.93      0.22487347    0.0010433984
      3763.69      0.22904220    0.0010422376
      3767.45      0.23394449    0.0010405886
      3771.22      0.23981801    0.0010345855
      3774.99      0.24220051    0.0010433087
      3778.77      0.24312444    0.0010350164
      3782.54      0.24712802    0.0010226149
      3786.33      0.25097169    0.0010104113
      3790.11      0.25120146    0.0010003448
      3793.90      0.25243911   0.00098968102
      3797.70      0.25280882   0.00096849090
      3801.50      0.25119914   0.00095728606
      3805.30      0.24563479   0.00094703316
      3809.10      0.23635614   0.00093780361
      3812.91      0.22644666   0.00092819044
      3816.73      0.21987301   0.00091727065
      3820.54      0.21706733   0.00090570000
      3824.36      0.21863110   0.00089366114
      3828.19      0.21786399   0.00088523796
      3832.02      0.21676422   0.00087763589
      3835.85      0.21609217   0.00087132820
      3839.68      0.21558662   0.00086812269
      3843.52      0.21770268   0.00086615811
      3847.37      0.22222869   0.00085442957
      3851.22      0.22851657   0.00085362385
      3855.07      0.23469896   0.00085283958
      3858.92      0.23900133   0.00085219732
      3862.78      0.24111513   0.00085108039
      3866.64      0.24435694   0.00084828332
      3870.51      0.24702081   0.00084525082
      3874.38      0.24786412   0.00084305812
      3878.26      0.24756980   0.00084211469
      3882.13      0.24934194   0.00084209039
      3886.02      0.25460875   0.00084242977
      3889.90      0.26044800   0.00085291602
      3893.79      0.26510087   0.00087802122
      3897.69      0.27026676   0.00091011448
      3901.59      0.27847731   0.00086430371
      3905.49      0.28259461   0.00085349798
      3909.39      0.28667485   0.00087120807
      3913.30      0.29059549   0.00089819092
      3917.22      0.29452267   0.00092707057
      3921.13      0.29915593   0.00096337788
      3925.06      0.30164041    0.0010273621
      3928.98      0.30014187    0.0011165465
      3932.91      0.29617033    0.0012461165
      3936.84      0.29148984    0.0014400600
      3940.78      0.29420826    0.0011948003
      3944.72      0.29440797    0.0010177150
      3948.67      0.29480077    0.0010434468
      3952.61      0.29835413    0.0010722153
      3956.57      0.30494007    0.0010997180
      3960.52      0.31394493    0.0011293710
      3964.48      0.32490056    0.0015125942
      3968.45      0.33869751    0.0014968630
      3972.42      0.34648497    0.0012840088
      3976.39      0.35209198    0.0011352803
      3980.37      0.35628950    0.0010638970
      3984.35      0.36229109    0.0010099212
      3988.33      0.37004066   0.00096208186
      3992.32      0.37745602   0.00092700330
      3996.31      0.38532654   0.00093112265
      4000.31      0.39314712    0.0010150743
      4004.31      0.39557555   0.00095041007
      4008.31      0.39926012   0.00090084389
      4012.32      0.40102486   0.00086272582
      4016.33      0.40245860   0.00083304310
      4020.35      0.40327834   0.00081944174
      4024.37      0.40317791   0.00081684281
      4028.40      0.40300593   0.00081426685
      4032.42      0.40205335   0.00081177870
      4036.46      0.40208143   0.00080869580
      4040.50      0.40156126   0.00080604410
      4044.54      0.40032280   0.00080356791
      4048.58      0.39821806   0.00080119731
      4052.63      0.39669414   0.00079887479
      4056.68      0.39838403   0.00079573709
      4060.74      0.40510160   0.00078202884
      4064.80      0.40753288   0.00078029630
      4068.86      0.40667572   0.00077865608
      4072.93      0.40472022   0.00077686228
      4077.01      0.40095106   0.00077535323
      4081.08      0.39809317   0.00077292317
      4085.17      0.39741595   0.00076933071
      4089.25      0.39585506   0.00077556993
      4093.34      0.39701448   0.00077163486
      4097.43      0.39796139   0.00076820262
      4101.53      0.39803794   0.00075589675
      4105.63      0.39956066   0.00075272428
      4109.74      0.40034593   0.00075081406
      4113.85      0.40191073   0.00074891140
      4117.96      0.40230620   0.00074793938
      4122.08      0.40175769   0.00074797742
      4126.20      0.40311639   0.00074755469
      4130.33      0.40667313   0.00074589431
      4134.46      0.41291091   0.00074279582
      4138.59      0.41781479   0.00073116150
      4142.73      0.41684328   0.00073825397
      4146.88      0.41439399   0.00073747642
      4151.02      0.41282863   0.00073667981
      4155.18      0.41209149   0.00073577454
      4159.33      0.41372888   0.00073440304
      4163.49      0.41568394   0.00073360580
      4167.65      0.41583845   0.00072505227
      4171.82      0.41710390   0.00072402181
      4175.99      0.41759802   0.00072332148
      4180.17      0.41842214   0.00072267760
      4184.35      0.42269948   0.00072068024
      4188.54      0.42675635   0.00072710196
      4192.72      0.42766031   0.00072708074
      4196.92      0.42672933   0.00071909380
      4201.11      0.42553189   0.00071931189
      4205.31      0.42538917   0.00071912152
      4209.52      0.42821533   0.00071756876
      4213.73      0.43230984   0.00071585814
      4217.94      0.43424741   0.00071521642
      4222.16      0.43393443   0.00071528219
      4226.38      0.43457556   0.00071551611
      4230.61      0.43876238   0.00071438246
      4234.84      0.44278447   0.00071386605
      4239.08      0.44491081   0.00071382851
      4243.32      0.44484354   0.00071426762
      4247.56      0.44574585   0.00070557863
      4251.81      0.44849150   0.00071350488
      4256.06      0.45112770   0.00071231109
      4260.32      0.45486265   0.00071007570
      4264.58      0.45814978   0.00070729965
      4268.84      0.45562267   0.00069629796
      4273.11      0.44663431   0.00069558561
      4277.38      0.43610397   0.00069396729
      4281.66      0.42718111   0.00069828934
      4285.94      0.42383067   0.00069313007
      4290.23      0.42103447   0.00067996843
      4294.52      0.42122923   0.00067610367
      4298.81      0.42288747   0.00067338895
      4303.11      0.42345012   0.00067313979
      4307.42      0.42429788   0.00068236794
      4311.72      0.42961489   0.00067707710
      4316.04      0.43212088   0.00068013853
      4320.35      0.43398854   0.00068469022
      4324.67      0.43974745   0.00068865816
      4329.00      0.45125629   0.00068423670
      4333.33      0.46428350   0.00069570188
      4337.66      0.47548492   0.00069716855
      4342.00      0.48756974   0.00069698712
      4346.34      0.49462386   0.00069078136
      4350.69      0.49577096   0.00069209931
      4355.04      0.49145384   0.00070322490
      4359.39      0.49086136   0.00070432304
      4363.75      0.49514276   0.00070264248
      4368.12      0.49658688   0.00069328105
      4372.48      0.49636365   0.00069242604
      4376.86      0.49894304   0.00069696762
      4381.23      0.50025417   0.00069398262
      4385.61      0.49986570   0.00068523057
      4390.00      0.50162281   0.00068454576
      4394.39      0.50448703   0.00068449659
      4398.79      0.50592585   0.00068690331
      4403.18      0.50877369   0.00068971691
      4407.59      0.51468233   0.00069256489
      4412.00      0.52410901   0.00069471579
      4416.41      0.53663315   0.00069767849
      4420.82      0.54423858   0.00069978559
      4425.25      0.55026107   0.00070122102
      4429.67      0.55186714   0.00070312790
      4434.10      0.54874925   0.00070560773
      4438.54      0.54963805   0.00070544632
      4442.97      0.55134972   0.00070460806
      4447.42      0.55300555   0.00069480891
      4451.86      0.55313915   0.00069373779
      4456.32      0.55177222   0.00070122849
      4460.77      0.55107940   0.00070108932
      4465.24      0.55007340   0.00069352634
      4469.70      0.55268872   0.00069307585
      4474.17      0.55674252   0.00070107607
      4478.65      0.56094988   0.00069455038
      4483.12      0.56564071   0.00069513625
      4487.61      0.57077147   0.00069611883
      4492.09      0.57607888   0.00069868067
      4496.59      0.57884840   0.00069854573
      4501.08      0.58058502   0.00069763166
      4505.58      0.58003918   0.00070480105
      4510.09      0.57747456   0.00069549180
      4514.60      0.57411493   0.00069429260
      4519.12      0.57127901   0.00069307207
      4523.63      0.57147930   0.00069050152
      4528.16      0.57212916   0.00068831707
      4532.69      0.57383634   0.00068650098
      4537.22      0.57681288   0.00068547563
      4541.76      0.57879507   0.00068552400
      4546.30      0.58023872   0.00068685691
      4550.85      0.58397796   0.00068158685
      4555.40      0.59121225   0.00069074456
      4559.95      0.59771554   0.00069176340
      4564.51      0.60314210   0.00068605119
      4569.08      0.61085782   0.00069356558
      4573.65      0.61676584   0.00068638785
      4578.22      0.62072454   0.00068691470
      4582.80      0.62463941   0.00069526441
      4587.38      0.63132050   0.00068872010
      4591.97      0.63778889   0.00068928528
      4596.56      0.64376435   0.00069055042
      4601.16      0.64958542   0.00069330004
      4605.76      0.65558094   0.00069548365
      4610.37      0.66110171   0.00069770348
      4614.98      0.66573043   0.00070026230
      4619.59      0.67199182   0.00070069099
      4624.21      0.67858265   0.00069293518
      4628.84      0.68243444   0.00070065742
      4633.47      0.68463022   0.00070066955
      4638.10      0.68763163   0.00069217594
      4642.74      0.69031554   0.00069874531
      4647.38      0.69177553   0.00069821627
      4652.03      0.69322448   0.00069007594
      4656.68      0.69444799   0.00069703009
      4661.34      0.69524606   0.00068925070
      4666.00      0.69442629   0.00068868798
      4670.67      0.69332107   0.00069581151
      4675.33      0.68965614   0.00068788011
      4680.01      0.68876239   0.00069387239
      4684.69      0.68983147   0.00068437002
      4689.38      0.68987058   0.00068301668
      4694.07      0.68768266   0.00069006962
      4698.76      0.68657199   0.00068339472
      4703.46      0.68781989   0.00068378241
      4708.16      0.69334499   0.00068500936
      4712.87      0.69863607   0.00068558745
      4717.58      0.70486158   0.00068881934
      4722.30      0.71039231   0.00069012147
      4727.03      0.71504114   0.00069159230
      4731.75      0.71988812   0.00069389747
      4736.48      0.72411612   0.00069378469
      4741.22      0.72810334   0.00068606647
      4745.96      0.72962773   0.00069196516
      4750.71      0.72698494   0.00068376835
      4755.46      0.72354398   0.00068908428
      4760.22      0.71923125   0.00068048897
      4764.97      0.71485985   0.00067934984
      4769.74      0.71137586   0.00068429948
      4774.51      0.70769832   0.00067578653
      4779.29      0.70266717   0.00068142340
      4784.07      0.69857246   0.00067409028
      4788.85      0.69570202   0.00067403603
      4793.64      0.69457227   0.00067364849
      4798.43      0.69434858   0.00067330893
      4803.23      0.69476126   0.00067270408
      4808.03      0.69519850   0.00067172546
      4812.84      0.69346365   0.00067103226
      4817.66      0.68719304   0.00067127935
      4822.48      0.68561167   0.00066332075
      4827.30      0.69077543   0.00093890236
      4832.12      0.69024420   0.00095521838
      4836.96      0.68319666   0.00093418976
      4841.79      0.67120988   0.00095144984
      4846.63      0.67072990   0.00092627883
      4851.48      0.66840837   0.00092293165
      4856.33      0.66578723   0.00091986791
      4861.19      0.66829894   0.00091854699
      4866.05      0.67485076   0.00091931417
      4870.92      0.67727786   0.00092180638
      4875.79      0.67851491   0.00092324463
      4880.66      0.67985349   0.00092249158
      4885.55      0.67714670   0.00092626639
      4890.43      0.68585247   0.00092788789
      4895.32      0.69276148   0.00093201643
      4900.22      0.69573094   0.00093504702
      4905.12      0.69001706   0.00093896122
      4910.02      0.69197720   0.00093595251
      4914.94      0.69931667   0.00093539568
      4919.85      0.71093306   0.00093982040
      4924.77      0.74260864   0.00067196887
      4929.70      0.75379539   0.00067547088
      4934.62      0.76202185   0.00067627832
      4939.56      0.76544977   0.00067923101
      4944.50      0.76509311   0.00067997852
      4949.44      0.76255194   0.00067253617
      4954.39      0.76100084   0.00067664515
      4959.35      0.75315334   0.00066718520
      4964.31      0.74455422   0.00066214552
      4969.27      0.73662040   0.00065878452
      4974.24      0.71508356   0.00065674117
      4979.22      0.69896660   0.00066115016
      4984.20      0.69022488   0.00065274745
      4989.18      0.68559099   0.00065740150
