# starting wavelength =        2824.3667
# ending wavelength =        8489.3321
# O2 telluric scale =        0
# O2 telluric shift =        0
# H2O telluric scale =        0
# H2O telluric shift =        0
      2825.06      0.67598907      0.16823950
      2827.88      0.67688825      0.16688386
      2830.71      0.67140211      0.16482814
      2833.54      0.67651916      0.16334464
      2836.38      0.65826346      0.16173340
      2839.21      0.66386646      0.15949159
      2842.05      0.65682230      0.15786544
      2844.90      0.64135745      0.15560773
      2847.74      0.64948158      0.15400334
      2850.59      0.64037940      0.15187133
      2853.44      0.63837914      0.15036239
      2856.29      0.64382583      0.14833876
      2859.15      0.64868121      0.14704060
      2862.01      0.65085965      0.14575805
      2864.87      0.62911042      0.14410266
      2867.74      0.62739137      0.14294998
      2870.60      0.65613889      0.14144388
      2873.47      0.65066664      0.14031595
      2876.35      0.64647751      0.13875827
      2879.22      0.65550258      0.13778222
      2882.10      0.66137715      0.13641825
      2884.99      0.67987451      0.13550477
      2887.87      0.67252020      0.13426876
      2890.76      0.65423648      0.13336840
      2893.65      0.66420244      0.13211938
      2896.54      0.67844156      0.13129065
      2899.44      0.68207962      0.13018491
      2902.34      0.68038619      0.12934711
      2905.24      0.66641331      0.12808094
      2908.15      0.67359856      0.12724629
      2911.06      0.65542327      0.12591896
      2913.97      0.68714428      0.12502988
      2916.88      0.70726060      0.12388838
      2919.80      0.69690703      0.12304810
      2922.72      0.72439569      0.12180676
      2925.64      0.73327672      0.12106222
      2928.57      0.72725111      0.11987305
      2931.50      0.73795293      0.11906508
      2934.43      0.71282772      0.11801116
      2937.36      0.70544899      0.11726050
      2940.30      0.72496264      0.11619996
      2943.24      0.71996603      0.11563187
      2946.18      0.71920333      0.11469577
      2949.13      0.72526704      0.11438755
      2952.08      0.74660363      0.11353048
      2955.03      0.79098327      0.11286885
      2957.99      0.80488942      0.11189503
      2960.94      0.78488747      0.11135856
      2963.90      0.78286798      0.11038812
      2966.87      0.76695082      0.10973578
      2969.84      0.76765419      0.10896497
      2972.81      0.78513953      0.10818996
      2975.78      0.78042363      0.10770057
      2978.76      0.76364739      0.10705714
      2981.73      0.75926442      0.10659248
      2984.72      0.78181622      0.10589589
      2987.70      0.80441958      0.10535245
      2990.69      0.80006480      0.10453460
      2993.68      0.79936231      0.10414595
      2996.67      0.78818339      0.10332304
      2999.67      0.80131816      0.10251943
      3002.67      0.80837909      0.10208504
      3005.67      0.78898496      0.10128275
      3008.68      0.77030754      0.10086407
      3011.69      0.79553827      0.10010038
      3014.70      0.79296245     0.099597815
      3017.71      0.80847489     0.098908045
      3020.73      0.81105244     0.098129646
      3023.75      0.82453148     0.097726399
      3026.78      0.82283916     0.096942823
      3029.80      0.83657557     0.096441057
      3032.83      0.82419510     0.095787384
      3035.87      0.83191929     0.095289729
      3038.90      0.85065852     0.094888976
      3041.94      0.86701727     0.094135313
      3044.98      0.89542898     0.093655871
      3048.03      0.89823282     0.092991597
      3051.08      0.89258932     0.092295502
      3054.13      0.90472944     0.092005851
      3057.18      0.91008441     0.091293722
      3060.24      0.90214200     0.090519046
      3063.30      0.92666743     0.090086177
      3066.36      0.91930859     0.089324026
      3069.43      0.91432457     0.088839588
      3072.50      0.90847373     0.088035067
      3075.57      0.90325053     0.087286902
      3078.65      0.89484033     0.086756165
      3081.73      0.89011414     0.086073702
      3084.81      0.89336968     0.085300818
      3087.89      0.90736307     0.084797002
      3090.98      0.91082166     0.084153053
      3094.07      0.91111146     0.083442943
      3097.17      0.91451825     0.083046349
      3100.26      0.92500743     0.082378169
      3103.36      0.91790118     0.082017257
      3106.47      0.91938452     0.081396209
      3109.58      0.90523671     0.080866367
      3112.68      0.90848712     0.080497792
      3115.80      0.89456618     0.080035330
      3118.91      0.90198200     0.079482453
      3122.03      0.90141150     0.079100377
      3125.15      0.87766848     0.078514678
      3128.28      0.89119940     0.077849440
      3131.41      0.90135921     0.077225658
      3134.54      0.89654667     0.076741487
      3137.67      0.88961432     0.076136317
      3140.81      0.87616690     0.075563174
      3143.95      0.88041620     0.075273078
      3147.10      0.87927104     0.074715161
      3150.24      0.87109814     0.074226010
      3153.39      0.88004311     0.073856266
      3156.55      0.87063684     0.073329994
      3159.70      0.86391654     0.072703315
      3162.86      0.85026626     0.072122795
      3166.03      0.83530253     0.071739916
      3169.19      0.83106101     0.071309973
      3172.36      0.82813806     0.071012460
      3175.54      0.82848912     0.071294316
      3178.71      0.84166668     0.070831627
      3181.89      0.85466194     0.070232632
      3185.07      0.84973417     0.069596447
      3188.26      0.85488079     0.069274605
      3191.45      0.87104662     0.068690224
      3194.64      0.86672597     0.068146746
      3197.83      0.86572881     0.067609351
      3201.03      0.83638497     0.067329892
      3204.23      0.82115119     0.066874855
      3207.44      0.82722528     0.066380946
      3210.64      0.81997215     0.065979376
      3213.85      0.82767149     0.065705438
      3217.07      0.84524980     0.065354158
      3220.28      0.85400042     0.064977102
      3223.51      0.84439890     0.064677301
      3226.73      0.84893596     0.064473567
      3229.96      0.85499036     0.064175857
      3233.19      0.84919016     0.063823955
      3236.42      0.84532935     0.063576206
      3239.66      0.84525835     0.063484304
      3242.90      0.84782168     0.063213068
      3246.14      0.85941856     0.063011529
      3249.39      0.86293287     0.062749821
      3252.64      0.86464970     0.062581633
      3255.89      0.88699607     0.062475261
      3259.14      0.90644878     0.062314512
      3262.40      0.90675282     0.062153495
      3265.67      0.90759404     0.061910865
      3268.93      0.90095648     0.061719364
      3272.20      0.91479118     0.061625135
      3275.47      0.93948754     0.061519782
      3278.75      0.94483989     0.061436039
      3282.03      0.93453438     0.061261050
      3285.31      0.94082333     0.061190478
      3288.60      0.94694761     0.060944333
      3291.88      0.95269365     0.060974533
      3295.18      0.96215370     0.060866095
      3298.47      0.93875540     0.060669587
      3301.77      0.94221634     0.060620545
      3305.07      0.95106067     0.060398255
      3308.38      0.94561491     0.060236498
      3311.69      0.93999817     0.060201916
      3315.00      0.93998000     0.059971556
      3318.31      0.91716681     0.059818889
      3321.63      0.91620272     0.059574059
      3324.95      0.91782071     0.059388000
      3328.28      0.93165147     0.059162893
      3331.61      0.93483246     0.058868268
      3334.94      0.93490172     0.058794344
      3338.27      0.95078895     0.058578815
      3341.61      0.94860124     0.058296048
      3344.95      0.94604599     0.058085233
      3348.30      0.96091730     0.057866665
      3351.65      0.97547352     0.057599367
      3355.00      0.97947006     0.057423045
      3358.35      0.98039357     0.057237633
      3361.71      0.97979799     0.056962715
      3365.07      0.97600714     0.056882470
      3368.44      0.97958486     0.056657466
      3371.81      0.99147408     0.056362020
      3375.18      0.99886133     0.056128808
      3378.56       1.0009874     0.055880084
      3381.94      0.99527637     0.055587929
      3385.32       1.0059132     0.055372332
      3388.70      0.99610561     0.055160770
      3392.09      0.98942984     0.054897396
      3395.48      0.99221676     0.054726680
      3398.88       1.0010280     0.054570361
      3402.28      0.99986249     0.054318194
      3405.68      0.99829961     0.054217006
      3409.09       1.0014117     0.054025695
      3412.49       1.0020043     0.053778311
      3415.91       1.0042176     0.053598300
      3419.32       1.0147013     0.053428482
      3422.74      0.99914293     0.053305196
      3426.17       1.0037668     0.053118144
      3429.59      0.99880629     0.053031912
      3433.02      0.99314934     0.052947133
      3436.45      0.99280573     0.052776912
      3439.89      0.99520405     0.052375747
      3443.33      0.98661654     0.052276461
      3446.78      0.98337919     0.052549553
      3450.22      0.97536963     0.052175564
      3453.67      0.96407993     0.051893058
      3457.13      0.96186696     0.051617252
      3460.58      0.95987201     0.051349857
      3464.04      0.96156504     0.051068530
      3467.51      0.97620706     0.050853137
      3470.98      0.99383663     0.050657054
      3474.45      0.99449117     0.050807867
      3477.92       1.0010526     0.050737905
      3481.40       1.0096852     0.050449981
      3484.88       1.0127813     0.050186791
      3488.37       1.0083344     0.049962492
      3491.86       1.0272558     0.049702423
      3495.35       1.0307330     0.049507771
      3498.84       1.0396063     0.049354251
      3502.34       1.0435153     0.049235769
      3505.84       1.0465801     0.049077142
      3509.35       1.0522957     0.048986398
      3512.86       1.0503003     0.048913948
      3516.37       1.0591403     0.048856345
      3519.89       1.0606936     0.048799651
      3523.41       1.0682869     0.048698203
      3526.93       1.0588273     0.048648612
      3530.46       1.0586121     0.048599333
      3533.99       1.0495417     0.048457888
      3537.53       1.0545539     0.048427314
      3541.06       1.0598007     0.048362007
      3544.60       1.0589891     0.048367969
      3548.15       1.0269674     0.048356091
      3551.70       1.0171611     0.048340186
      3555.25       1.0120030     0.048329963
      3558.80       1.0124251     0.048256841
      3562.36       1.0128735     0.048258873
      3565.92      0.99563900     0.048269631
      3569.49      0.98676741     0.048283420
      3573.06      0.99139625     0.048291116
      3576.64      0.98185932     0.048235088
      3580.21      0.97160722     0.048174427
      3583.79      0.96680499     0.048198173
      3587.38      0.96342090     0.048271034
      3590.96      0.96447657     0.048273208
      3594.55      0.96656553     0.048261719
      3598.15      0.96774159     0.048230395
      3601.75      0.97267663     0.048196592
      3605.35      0.98406839     0.048021126
      3608.96      0.97823265     0.047996431
      3612.56      0.99124494     0.047956938
      3616.18      0.98207911     0.047919580
      3619.79      0.99065090     0.047873733
      3623.41      0.99186442     0.047825170
      3627.04      0.98757697     0.047773707
      3630.66      0.97174521     0.047625137
      3634.29      0.97373009     0.047481363
      3637.93      0.95971956     0.047402495
      3641.57      0.97084358     0.047329130
      3645.21      0.98956863     0.047253435
      3648.86       1.0020220     0.047192616
      3652.50       1.0113657     0.047039962
      3656.16       1.0125494     0.046964398
      3659.81       1.0104898     0.046890860
      3663.47       1.0118112     0.046809475
      3667.14       1.0222329     0.046723046
      3670.80       1.0340577     0.046569146
      3674.48       1.0356275     0.046415492
      3678.15       1.0476825     0.046335905
      3681.83       1.0505698     0.046253022
      3685.51       1.0596878     0.046173743
      3689.20       1.0750273     0.046041383
      3692.88       1.0793960     0.045975328
      3696.58       1.0769077     0.045907678
      3700.27       1.0684517     0.045851752
      3703.98       1.0587014     0.045734938
      3707.68       1.0661064     0.045700651
      3711.39       1.0637777     0.045695868
      3715.10       1.0704881     0.045727324
      3718.81       1.0744728     0.045700889
      3722.53       1.0647470     0.045751995
      3726.26       1.0707831     0.045796164
      3729.98       1.0932720     0.045754825
      3733.71       1.1103868     0.045379770
      3737.45       1.1228383     0.045366100
      3741.18       1.1456628     0.045357585
      3744.93       1.1582149     0.045363350
      3748.67       1.1740487     0.045317130
      3752.42       1.1876118     0.045339410
      3756.17       1.2016060     0.045378712
      3759.93       1.2025225     0.045360510
      3763.69       1.2120603     0.045151828
      3767.45       1.2230968     0.044988948
      3771.22       1.2363884     0.044885501
      3774.99       1.2414687     0.044865181
      3778.77       1.2520494     0.044897612
      3782.54       1.2683432     0.044903573
      3786.33       1.2871408     0.044801347
      3790.11       1.2881601     0.044773334
      3793.90       1.3099814     0.044749556
      3797.70       1.3224805     0.044652005
      3801.50       1.3334884     0.044630750
      3805.30       1.3550607     0.044607085
      3809.10       1.3621458     0.044507610
      3812.91       1.3870932     0.044476740
      3816.73       1.3924385     0.044374795
      3820.54       1.3983068     0.044343236
      3824.36       1.4063462     0.044309774
      3828.19       1.4192958     0.044217851
      3832.02       1.4228041     0.044189591
      3835.85       1.4217993     0.044162807
      3839.68       1.4140815     0.044074801
      3843.52       1.4166633     0.044054164
      3847.37       1.4154552     0.044033645
      3851.22       1.4223931     0.044023787
      3855.07       1.4276137     0.044009256
      3858.92       1.4305447     0.043923454
      3862.78       1.4352104     0.043902265
      3866.64       1.4270772     0.043806371
      3870.51       1.4312045     0.043773616
      3874.38       1.4368571     0.043740606
      3878.26       1.4536523     0.043647193
      3882.13       1.4671158     0.043625678
      3886.02       1.4623880     0.043631221
      3889.90       1.4680664     0.043609879
      3893.79       1.4784984     0.043518518
      3897.69       1.4898085     0.043488648
      3901.59       1.5011934     0.043453125
      3905.49       1.5039662     0.043359775
      3909.39       1.5107069     0.043349233
      3913.30       1.5070886     0.043267116
      3917.22       1.5237419     0.043305455
      3921.13       1.5373753     0.043192676
      3925.06       1.5532881     0.043162280
      3928.98       1.5734126     0.043085405
      3932.91       1.5934901     0.043070206
      3936.84       1.6099777     0.042988023
      3940.78       1.6488350     0.043035160
      3944.72       1.6579290     0.042955761
      3948.67       1.6655498     0.042936551
      3952.61       1.6790817     0.042844176
      3956.57       1.6770718     0.042823291
      3960.52       1.6843857     0.042736966
      3964.48       1.6883978     0.042769749
      3968.45       1.7002726     0.042681804
      3972.42       1.6950348     0.042652954
      3976.39       1.6875127     0.042567354
      3980.37       1.7013266     0.042544009
      3984.35       1.6937963     0.042513240
      3988.33       1.6977542     0.042419309
      3992.32       1.6961931     0.042389412
      3996.31       1.6786890     0.042289673
      4000.31       1.6698973     0.042312843
      4004.31       1.6731574     0.042219187
      4008.31       1.6715804     0.042189944
      4012.32       1.6737375     0.042105262
      4016.33       1.6826126     0.042081010
      4020.35       1.6733008     0.042047026
      4024.37       1.6704606     0.041957245
      4028.40       1.6771094     0.041934189
      4032.42       1.6771049     0.041858799
      4036.46       1.6811340     0.041889748
      4040.50       1.6744146     0.041806432
      4044.54       1.6589726     0.041723882
      4048.58       1.6571489     0.041756686
      4052.63       1.6551716     0.041677811
      4056.68       1.6507748     0.041608414
      4060.74       1.6548291     0.041599836
      4064.80       1.6486458     0.041587456
      4068.86       1.6405726     0.041758693
      4072.93       1.6390585     0.041762453
      4077.01       1.6397584     0.041681876
      4081.08       1.6341041     0.041639937
      4085.17       1.6323760     0.041774097
      4089.25       1.6323538     0.041762361
      4093.34       1.6346872     0.041677720
      4097.43       1.6125934     0.041483281
      4101.53       1.6014195     0.041354124
      4105.63       1.5996148     0.041367499
      4109.74       1.5774981     0.041278237
      4113.85       1.5647284     0.041212032
      4117.96       1.5651414     0.041197964
      4122.08       1.5552134     0.041203001
      4126.20       1.5431660     0.041168518
      4130.33       1.5171799     0.041200906
      4134.46       1.5125723     0.041250341
      4138.59       1.4952110     0.041311735
      4142.73       1.4805257     0.041342200
      4146.88       1.4737988     0.041364958
      4151.02       1.4541007     0.041496724
      4155.18       1.4388890     0.041515038
      4159.33       1.4332434     0.041543363
      4163.49       1.4284343     0.041621537
      4167.65       1.4319168     0.041687366
      4171.82       1.4319000     0.041759116
      4175.99       1.4231079     0.041771822
      4180.17       1.4213432     0.041785400
      4184.35       1.4186999     0.041898704
      4188.54       1.4196359     0.041914508
      4192.72       1.4141291     0.041988296
      4196.92       1.4120263     0.041983578
      4201.11       1.4105062     0.041993556
      4205.31       1.3979079     0.042115673
      4209.52       1.4022898     0.042098281
      4213.73       1.4095729     0.042140265
      4217.94       1.4156304     0.042123648
      4222.16       1.4250578     0.042169670
      4226.38       1.4259646     0.042165190
      4230.61       1.4248647     0.042268623
      4234.84       1.4330348     0.042242923
      4239.08       1.4502370     0.042264044
      4243.32       1.4609231     0.042218998
      4247.56       1.4646019     0.042155494
      4251.81       1.4742505     0.042188826
      4256.06       1.4678604     0.042135961
      4260.32       1.4649817     0.042192343
      4264.58       1.4713382     0.042143033
      4268.84       1.4515930     0.042147935
      4273.11       1.4507547     0.042077811
      4277.38       1.4466974     0.042072250
      4281.66       1.4325517     0.042012870
      4285.94       1.4306005     0.042006658
      4290.23       1.4311530     0.041931345
      4294.52       1.4320670     0.041918429
      4298.81       1.4213325     0.041850161
      4303.11       1.4705884     0.072404538
      4307.42       1.4569975     0.070928815
      4311.72       1.4479392     0.070801441
      4316.04       1.4102904     0.071029005
      4320.35       1.4190566     0.071496255
      4324.67       1.4331516     0.071349546
      4329.00       1.4477476     0.071486702
      4333.33       1.4552539     0.071530628
      4337.66       1.4623801     0.071249656
