# starting wavelength =        3315.3763
# ending wavelength =        9521.4179
# O2 telluric scale =        0
# O2 telluric shift =        0
# H2O telluric scale =        0
# H2O telluric shift =        0
      3318.31      0.71599671     0.082028881
      3321.63      0.70692725     0.081558558
      3324.95      0.67541551     0.081289490
      3328.28      0.66738641     0.081666272
      3331.61      0.61696107     0.081837122
      3334.94      0.62551071     0.082526919
      3338.27      0.61853508     0.083847942
      3341.61      0.65106267     0.084204733
      3344.95      0.65904599     0.084936020
      3348.30      0.61893731     0.085221302
      3351.65      0.63809348     0.085808106
      3355.00      0.59853157     0.085611295
      3358.35      0.58629122     0.084949060
      3361.71      0.60175909     0.083976573
      3365.07      0.60650290     0.083239951
      3368.44      0.60371448     0.082240167
      3371.81      0.64950574     0.080185587
      3375.18      0.65351798     0.078229259
      3378.56      0.65426946     0.076160543
      3381.94      0.69848866     0.074250453
      3385.32      0.75522708     0.072241840
      3388.70      0.80480591     0.070983648
      3392.09      0.84551818     0.069818391
      3395.48      0.87182512     0.069299744
      3398.88      0.87553965     0.068567684
      3402.28      0.88206895     0.068897427
      3405.68      0.87834485     0.069828999
      3409.09      0.87069048     0.070102749
      3412.49      0.86680272     0.069513466
      3415.91      0.83481135     0.070459358
      3419.32      0.83082341     0.071376673
      3422.74      0.79468989     0.072981092
      3426.17      0.77536025     0.075149409
      3429.59      0.80273352     0.076993226
      3433.02      0.79557073     0.079081395
      3436.45      0.79990571     0.080658948
      3439.89      0.76577877     0.083093754
      3443.33      0.72629211     0.083960922
      3446.78      0.72352435     0.084351237
      3450.22      0.72336886     0.084587833
      3453.67      0.73436375     0.082944520
      3457.13      0.79291466     0.080705371
      3460.58      0.81812737     0.078559680
      3464.04      0.83544753     0.075835577
      3467.51      0.84480584     0.072654864
      3470.98      0.84652491     0.070412490
      3474.45      0.87944758     0.068602665
      3477.92      0.89383383     0.066509063
      3481.40      0.91030049     0.065798008
      3484.88      0.91655625     0.066445742
      3488.37      0.89823289     0.064955113
      3491.86      0.91378789     0.065752714
      3495.35      0.92491188     0.066231994
      3498.84      0.93063365     0.064980473
      3502.34      0.91118688     0.065314991
      3505.84      0.90291323     0.065898368
      3509.35      0.90133245     0.065846661
      3512.86      0.93621677     0.066298783
      3516.37      0.93820633     0.066245703
      3519.89      0.93303145     0.065812295
      3523.41      0.93533976     0.065795579
      3526.93      0.95415143     0.064622031
      3530.46      0.92754596     0.063822290
      3533.99      0.89617439     0.062965124
      3537.53      0.93873993     0.061231752
      3541.06      0.93036793     0.060136275
      3544.60      0.91853915     0.059057499
      3548.15      0.87034449     0.057117807
      3551.70      0.85865379     0.056213069
      3555.25      0.84952707     0.056607135
      3558.80      0.83783808     0.055197382
      3562.36      0.83025759     0.054609803
      3565.92      0.85081231     0.054947908
      3569.49      0.87938586     0.054766117
      3573.06      0.90556404     0.054569220
      3576.64      0.91855170     0.055069839
      3580.21      0.93651549     0.056076466
      3583.79      0.92897001     0.056264629
      3587.38      0.91762703     0.057192554
      3590.96      0.93781343     0.058747427
      3594.55      0.97841126     0.059319252
      3598.15      0.98197645     0.058284263
      3601.75       1.0117827     0.058328394
      3605.35       1.0169258     0.060022375
      3608.96       1.0113992     0.061436079
      3612.56      0.97520459     0.059030885
      3616.18      0.97913623     0.059153661
      3619.79      0.92400294     0.059843364
      3623.41      0.91133690     0.061000103
      3627.04      0.88572697     0.062411594
      3630.66      0.89958986     0.064714114
      3634.29      0.89714722     0.067032142
      3637.93      0.87148673     0.065405524
      3641.57      0.88908135     0.065263416
      3645.21      0.89614940     0.061936001
      3648.86      0.88633059     0.060358626
      3652.50      0.85745367     0.057995708
      3656.16      0.86776103     0.056911487
      3659.81      0.85772103     0.056042194
      3663.47      0.85539633     0.055757307
      3667.14      0.88736455     0.056311024
      3670.80      0.86841873     0.053587887
      3674.48      0.86013032     0.054425740
      3678.15      0.82344249     0.059644630
      3681.83      0.82309023     0.058497772
      3685.51      0.82465452     0.057595714
      3689.20      0.82377228     0.058027269
      3692.88      0.84207358     0.058914428
      3696.58      0.86239155     0.059249767
      3700.27      0.91818598     0.058818098
      3703.98      0.90455932     0.057533187
      3707.68      0.87635930     0.057363059
      3711.39      0.87817432     0.056366643
      3715.10      0.88838410     0.054614718
      3718.81      0.91866385     0.054018661
      3722.53      0.92052187     0.053247487
      3726.26      0.96391519     0.052624930
      3729.98       1.0040923     0.052719036
      3733.71       1.0087050     0.052827231
      3737.45      0.99919158     0.051804018
      3741.18       1.0035978     0.051142819
      3744.93      0.99270989     0.050917777
      3748.67      0.96004674     0.049738846
      3752.42      0.99863375     0.049464482
      3756.17       1.0354690     0.049494306
      3759.93       1.0526932     0.049660527
      3763.69       1.0590935     0.050558051
      3767.45       1.0485156     0.051308701
      3771.22       1.0512252     0.051320802
      3774.99       1.0146833     0.052306186
      3778.77       1.0112018     0.053530409
      3782.54       1.0246594     0.054292323
      3786.33       1.0236798     0.055836641
      3790.11       1.0223662     0.058335287
      3793.90       1.0243045     0.058546630
      3797.70       1.0347520     0.059261359
      3801.50      0.99045695     0.060499667
      3805.30      0.95747599     0.062301566
      3809.10      0.89637284     0.064002039
      3812.91      0.86589057     0.066120432
      3816.73      0.80615342     0.067859323
      3820.54      0.81158484     0.068018055
      3824.36      0.87528759     0.068284150
      3828.19      0.91173707     0.066238041
      3832.02      0.89114599     0.067491320
      3835.85      0.86598994     0.064156911
      3839.68      0.87806849     0.062918616
      3843.52      0.90609069     0.062429456
      3847.37      0.93875619     0.062622836
      3851.22      0.95278509     0.062421628
      3855.07      0.98735107     0.060685140
      3858.92       1.0106805     0.063739866
      3862.78       1.0490229     0.062219193
      3866.64       1.0646547     0.062911218
      3870.51       1.0635796     0.066593943
      3874.38       1.0368901     0.063356497
      3878.26       1.0272477     0.060962913
      3882.13       1.0455024     0.060565721
      3886.02       1.0335700     0.060833138
      3889.90       1.0674792     0.062283949
      3893.79       1.1154192     0.063017185
      3897.69       1.1477000     0.062623441
      3901.59       1.1490886     0.063370873
      3905.49       1.1284180     0.063549711
      3909.39       1.1385207     0.058657598
      3913.30       1.1800051     0.057013580
      3917.22       1.2179997     0.055980745
      3921.13       1.3051509     0.055517048
      3925.06       1.3283624     0.055215302
      3928.98       1.3828050     0.053357007
      3932.91       1.4412214     0.055379504
      3936.84       1.4755518     0.054584498
      3940.78       1.5180734     0.053281142
      3944.72       1.5433336     0.053216006
      3948.67       1.5686111     0.051956202
      3952.61       1.5661334     0.052084627
      3956.57       1.5878063     0.052591911
      3960.52       1.5947513     0.053003236
      3964.48       1.6433004     0.053583249
      3968.45       1.6552574     0.053499348
      3972.42       1.6437767     0.053562494
      3976.39       1.6232379     0.054260170
      3980.37       1.6099271     0.053547382
      3984.35       1.6164919     0.052832297
      3988.33       1.6360491     0.052339188
      3992.32       1.6748062     0.051700524
      3996.31       1.7167525     0.050897969
      4000.31       1.7241257     0.050547371
      4004.31       1.7485961     0.050393768
      4008.31       1.7549656     0.050650023
      4012.32       1.7637955     0.051731980
      4016.33       1.7924770     0.049852568
      4020.35       1.8009047     0.049397077
      4024.37       1.8102314     0.048803868
      4028.40       1.7836372     0.048154572
      4032.42       1.7958273     0.047429090
      4036.46       1.8099108     0.047005772
      4040.50       1.8022889     0.046829951
      4044.54       1.7810829     0.046418730
      4048.58       1.7788178     0.046099808
      4052.63       1.7584692     0.045990166
      4056.68       1.7095850     0.045990308
      4060.74       1.6877253     0.047089428
      4064.80       1.6732959     0.046273980
      4068.86       1.6625349     0.046530499
      4072.93       1.6209282     0.047430599
      4077.01       1.5693036     0.048721667
      4081.08       1.5296644     0.050892743
      4085.17       1.4564532     0.052637815
      4089.25       1.3881466     0.053734029
      4093.34       1.3608893     0.054677724
      4097.43       1.3325692     0.056594340
      4101.53       1.3041325     0.058871812
      4105.63       1.2801708     0.060142539
      4109.74       1.2826753     0.061367362
      4113.85       1.2981800     0.062170439
      4117.96       1.2959361     0.062508066
      4122.08       1.3190912     0.061565848
      4126.20       1.3755960     0.060036121
      4130.33       1.3902308     0.057998489
      4134.46       1.4302546     0.056336871
      4138.59       1.4801922     0.055103636
      4142.73       1.4901439     0.052607924
      4146.88       1.5072869     0.050818340
      4151.02       1.4824793     0.049516751
      4155.18       1.4825113     0.048634539
      4159.33       1.4733055     0.048794081
      4163.49       1.4563895     0.048265986
      4167.65       1.4725725     0.047236960
      4171.82       1.4574409     0.046910962
      4175.99       1.4615037     0.046674128
      4180.17       1.4715205     0.046179826
      4184.35       1.4688722     0.045713619
      4188.54       1.4520807     0.045312999
      4192.72       1.4318202     0.045242109
      4196.92       1.4078597     0.044989600
      4201.11       1.3850863     0.044839359
      4205.31       1.3655698     0.044306063
      4209.52       1.3716060     0.044233183
      4213.73       1.3623488     0.044252520
      4217.94       1.3815039     0.044119359
      4222.16       1.3782215     0.044058747
      4226.38       1.3621846     0.044103113
      4230.61       1.3563733     0.044182945
      4234.84       1.3744699     0.043974749
      4239.08       1.3846655     0.044034060
      4243.32       1.4013431     0.044078771
      4247.56       1.4134027     0.044054381
      4251.81       1.4056824     0.044263246
      4256.06       1.4268144     0.044176364
      4260.32       1.4493429     0.043598409
      4264.58       1.4227623     0.043319551
      4268.84       1.4064595     0.043089241
      4273.11       1.3820125     0.042854697
      4277.38       1.3581559     0.042684094
      4281.66       1.3685137     0.042366112
      4285.94       1.3667568     0.042290945
      4290.23       1.3753321     0.042458170
      4294.52       1.3804338     0.042376885
      4298.81       1.4025244     0.042318776
      4303.11       1.3696105     0.041961680
      4307.42       1.3870598     0.041753307
      4311.72       1.3994458     0.041528985
      4316.04       1.3905575     0.041325339
      4320.35       1.3789633     0.041011414
      4324.67       1.3920575     0.040766063
      4329.00       1.4003317     0.040556171
      4333.33       1.3875184     0.040671357
      4337.66       1.4031006     0.040995934
      4342.00       1.4025026     0.039958569
      4346.34       1.3995468     0.039870320
      4350.69       1.3801289     0.039976242
      4355.04       1.3696705     0.040099527
      4359.39       1.3653846     0.040486500
      4363.75       1.3972991     0.040976325
      4368.12       1.3775274     0.041669049
      4372.48       1.3917811     0.041808347
      4376.86       1.3933939     0.041945711
      4381.23       1.3890410     0.041799819
      4385.61       1.3767258     0.041591118
      4390.00       1.3863068     0.041848041
      4394.39       1.3724011     0.041883135
      4398.79       1.3566569     0.041779011
      4403.18       1.3409300     0.041793576
      4407.59       1.3397521     0.042116590
      4412.00       1.3294013     0.042338074
      4416.41       1.3222699     0.042630720
      4420.82       1.3244443     0.043225080
      4425.25       1.3224509     0.042188953
      4429.67       1.3159977     0.041769195
      4434.10       1.2896191     0.041445587
      4438.54       1.2935368     0.041150336
      4442.97       1.2993514     0.040779115
      4447.42       1.3165123     0.040576796
      4451.86       1.3299229     0.040763038
      4456.32       1.3671637     0.041355541
      4460.77       1.3737995     0.042404225
      4465.24       1.3951456     0.042920985
      4469.70       1.4056276     0.043604828
      4474.17       1.4219455     0.044308594
      4478.65       1.4401179     0.043923061
      4483.12       1.4530792     0.043555206
      4487.61       1.4791287     0.043867286
      4492.09       1.4939583     0.043216518
      4496.59       1.5053021     0.041601866
      4501.08       1.5416588     0.040425280
      4505.58       1.5679472     0.039976543
      4510.09       1.5832274     0.039398260
      4514.60       1.5868987     0.039415104
      4519.12       1.6059268     0.039762732
      4523.63       1.6174027     0.039652827
      4528.16       1.6490328     0.039632824
      4532.69       1.6757207     0.039267458
      4537.22       1.6963773     0.038937313
      4541.76       1.7226758     0.038270522
      4546.30       1.7525097     0.038192071
      4550.85       1.7767230     0.038122765
      4555.40       1.7849546     0.038394948
      4559.95       1.7987257     0.038407955
      4564.51       1.8230767     0.038497544
      4569.08       1.8473411     0.039254275
      4573.65       1.8824924     0.040272410
      4578.22       1.8953706     0.040579938
      4582.80       1.9270320     0.040070163
      4587.38       1.9514388     0.040255501
      4591.97       1.9610546     0.040367039
      4596.56       1.9632252     0.040403032
      4601.16       1.9725465     0.040397651
      4605.76       1.9756827     0.040334463
      4610.37       1.9444474     0.039962046
      4614.98       1.9459481     0.040049142
      4619.59       1.9170747     0.039746418
      4624.21       1.8724321     0.039836619
      4628.84       1.8478989     0.039526015
      4633.47       1.8366079     0.039526152
      4638.10       1.7755908     0.039252068
      4642.74       1.7187072     0.039145743
      4647.38       1.6868865     0.038958394
      4652.03       1.6678418     0.038662127
      4656.68       1.6298514     0.038877091
      4661.34       1.6014928     0.038703867
      4666.00       1.5656419     0.038874547
      4670.67       1.5451531     0.038595027
      4675.33       1.5067551     0.038718774
      4680.01       1.4783020     0.038778699
      4684.69       1.4665212     0.039637666
      4689.38       1.4466064     0.040504841
      4694.07       1.4118052     0.041682619
      4698.76       1.3936211     0.042577944
      4703.46       1.4005451     0.043321319
      4708.16       1.3996322     0.043316736
      4712.87       1.3790173     0.043580047
      4717.58       1.3911142     0.042551590
      4722.30       1.3976127     0.041868758
      4727.03       1.3623410     0.040511624
      4731.75       1.3642330     0.039175744
      4736.48       1.3827957     0.038089974
      4741.22       1.3788470     0.037066198
      4745.96       1.3664241     0.036464107
      4750.71       1.3728801     0.036047481
      4755.46       1.3548895     0.035766148
      4760.22       1.3496343     0.035806315
      4764.97       1.3315970     0.035615719
      4769.74       1.3073073     0.035081835
      4774.51       1.2942632     0.035594522
      4779.29       1.2609225     0.035935171
      4784.07       1.2361973     0.036864376
      4788.85       1.2242486     0.038186666
      4793.64       1.1942792     0.039130629
      4798.43       1.1823657     0.040037730
      4803.23       1.1662062     0.040519505
      4808.03       1.1550530     0.041748985
      4812.84       1.1643334     0.041336048
      4817.66       1.1756751     0.040065181
      4822.48       1.1769100     0.039724205
      4827.30       1.1871171     0.039077756
      4832.12       1.1902694     0.038071114
      4836.96       1.1974033     0.038205247
      4841.79       1.2059147     0.037773386
      4846.63       1.1991458     0.037029350
      4851.48       1.2410692     0.037356392
      4856.33       1.2591950     0.037595207
      4861.19       1.2668685     0.038498148
      4866.05       1.3020086     0.039207000
      4870.92       1.2855677     0.039061797
      4875.79       1.3131501     0.038513073
      4880.66       1.2987674     0.038467026
      4885.55       1.3001131     0.037396527
      4890.43       1.3132147     0.036830338
      4895.32       1.3105337     0.036605888
      4900.22       1.2842296     0.037110383
      4905.12       1.2859204     0.036528762
      4910.02       1.2768562     0.035998898
      4914.94       1.2527702     0.036122931
      4919.85       1.2524562     0.036043982
      4924.77       1.2404017     0.036043722
      4929.70       1.2372101     0.036444977
      4934.62       1.2377736     0.036014637
      4939.56       1.2587617     0.035281166
      4944.50       1.2829213     0.034992630
      4949.44       1.3285485     0.034759735
      4954.39       1.3563443     0.035659932
      4959.35       1.4040691     0.036787934
      4964.31       1.4563314     0.035465690
      4969.27       1.5177326     0.035557079
      4974.24       1.5459810     0.035527405
      4979.22       1.5836298     0.035680846
      4984.20       1.6093815     0.036714115
      4989.18       1.6134939     0.038070186
      4994.17       1.6105190     0.039956788
      4999.16       1.6490421     0.042444447
      5004.16       1.6353066     0.043523564
      5009.17       1.6268114     0.044517117
      5014.18       1.6037945     0.045486483
      5019.19       1.5281348     0.045487537
      5024.21       1.4836752     0.045054306
      5029.23       1.4340834     0.044526998
      5034.26       1.3880199     0.044313030
      5039.30       1.3204837     0.044891903
      5044.34       1.3275678     0.045682158
      5049.39       1.2980983     0.050954365
      5054.43       1.2917314     0.048328398
      5059.49       1.3018012     0.046213662
      5064.55       1.2840883     0.046284903
      5069.61       1.2797433     0.046228869
      5074.68       1.2711817     0.045615417
      5079.76       1.2504797     0.045584872
      5084.84       1.2419140     0.045985215
      5089.92       1.2340969     0.047246232
      5095.01       1.2550079     0.049520645
