# starting wavelength =        3424.3170
# ending wavelength =        7258.6440
# O2 telluric scale =        0
# O2 telluric shift =        0
# H2O telluric scale =        0
# H2O telluric shift =        0
      3426.17       2.0994638     0.027951212
      3429.59       2.0778240     0.027301701
      3433.02       2.0757406     0.026621227
      3436.45       2.0672614     0.025711995
      3439.89       2.0519335     0.025252455
      3443.33       2.0210979     0.024849571
      3446.78       2.0305050     0.024649429
      3450.22       2.0246926     0.024586852
      3453.67       2.0197311     0.024450502
      3457.13       2.0123807     0.024441562
      3460.58       2.0096999     0.024398356
      3464.04       2.0004369     0.024294345
      3467.51       1.9830409     0.024238478
      3470.98       1.9636360     0.024097923
      3474.45       1.9460011     0.024057280
      3477.92       1.9276875     0.023938774
      3481.40       1.9213486     0.023754966
      3484.88       1.9114749     0.023631245
      3488.37       1.8977147     0.023528029
      3491.86       1.8870966     0.023733378
      3495.35       1.9047341     0.023115858
      3498.84       1.9083765     0.022764435
      3502.34       1.8976113     0.022488673
      3505.84       1.9186316     0.022282441
      3509.35       1.9338155     0.022040580
      3512.86       1.9556335     0.021943601
      3516.37       1.9789387     0.021770579
      3519.89       1.9937386     0.021721968
      3523.41       1.9994603     0.021283859
      3526.93       2.0144974     0.021051565
      3530.46       2.0097003     0.020714566
      3533.99       2.0250802     0.020462732
      3537.53       2.0285400     0.020057498
      3541.06       2.0336282     0.019727580
      3544.60       2.0354608     0.019350274
      3548.15       2.0383133     0.019011763
      3551.70       2.0360243     0.018618250
      3555.25       2.0197856     0.018263011
      3558.80       2.0121894     0.017964241
      3562.36       2.0072309     0.017658092
      3565.92       1.9987598     0.017413632
      3569.49       1.9907097     0.017149629
      3573.06       1.9855659     0.016967189
      3576.64       1.9861248     0.016848381
      3580.21       1.9812491     0.016787556
      3583.79       1.9768519     0.016638847
      3587.38       1.9680475     0.016481411
      3590.96       1.9684396     0.016364190
      3594.55       1.9677547     0.016303365
      3598.15       1.9736428     0.016248155
      3601.75       1.9680101     0.016168109
      3605.35       1.9542793     0.015549243
      3608.96       1.9434741     0.015559253
      3612.56       1.9395406     0.015572879
      3616.18       1.9387814     0.015592846
      3619.79       1.9332758     0.015613658
      3623.41       1.9356019     0.015672170
      3627.04       1.9269917     0.015694842
      3630.66       1.9288420     0.015712631
      3634.29       1.9297829     0.015726784
      3637.93       1.9264857     0.015770185
      3641.57       1.9371919     0.015767225
      3645.21       1.9350700     0.015754779
      3648.86       1.9322111     0.015765982
      3652.50       1.9499317     0.015727816
      3656.16       1.9541144     0.015676087
      3659.81       1.9614059     0.015595796
      3663.47       1.9703322     0.015514239
      3667.14       1.9780085     0.015419199
      3670.80       1.9841603     0.015341737
      3674.48       1.9910592     0.015220374
      3678.15       1.9870170     0.015089493
      3681.83       1.9851748     0.014976694
      3685.51       1.9675407     0.014826605
      3689.20       1.9713078     0.014698227
      3692.88       1.9671133     0.014538775
      3696.58       1.9593918     0.014323217
      3700.27       1.9620296     0.014184603
      3703.98       1.9532548     0.014020133
      3707.68       1.9650245     0.013883855
      3711.39       1.9583428     0.013727124
      3715.10       1.9640342     0.013599741
      3718.81       1.9483895     0.013405775
      3722.53       1.9402873     0.013295274
      3726.26       1.9291206     0.013168663
      3729.98       1.9245916     0.013080756
      3733.71       1.9047302     0.012979432
      3737.45       1.8965863     0.012918618
      3741.18       1.8725466     0.012801368
      3744.93       1.8569295     0.012771977
      3748.67       1.8464068     0.012759077
      3752.42       1.8319654     0.012729576
      3756.17       1.8157502     0.012708331
      3759.93       1.8023352     0.012707357
      3763.69       1.7927610     0.012755048
      3767.45       1.7958585     0.012816690
      3771.22       1.7986760     0.012813347
      3774.99       1.7867525     0.012898242
      3778.77       1.7731974     0.012951931
      3782.54       1.7631963     0.012974485
      3786.33       1.7663141     0.013002970
      3790.11       1.7490215     0.012998248
      3793.90       1.7327001     0.013033962
      3797.70       1.7187776     0.013070935
      3801.50       1.7107040     0.013107681
      3805.30       1.6963542     0.013098672
      3809.10       1.6755002     0.013130522
      3812.91       1.6600858     0.013157798
      3816.73       1.6359073     0.013179145
      3820.54       1.6389379     0.013193359
      3824.36       1.6357064     0.013199420
      3828.19       1.6433259     0.013154246
      3832.02       1.6540738     0.013141064
      3835.85       1.6664692     0.013118125
      3839.68       1.6838583     0.013085356
      3843.52       1.6957870     0.013042896
      3847.37       1.7040852     0.012991021
      3851.22       1.7108188     0.012886023
      3855.07       1.7322946     0.012816236
      3858.92       1.7628517     0.012738370
      3862.78       1.7777081     0.012652923
      3866.64       1.7910453     0.012560363
      3870.51       1.8287495     0.012448078
      3874.38       1.8485712     0.012341803
      3878.26       1.8601994     0.012230085
      3882.13       1.8862164     0.012113470
      3886.02       1.8946915     0.011947422
      3889.90       1.9058184     0.011822386
      3893.79       1.9245946     0.011694134
      3897.69       1.9324079     0.011519866
      3901.59       1.9372528     0.011387201
      3905.49       1.9498180     0.011279180
      3909.39       1.9522328     0.011143216
      3913.30       1.9593986     0.010965403
      3917.22       1.9582867     0.010830319
      3921.13       1.9578691     0.010696494
      3925.06       1.9530406     0.010523628
      3928.98       1.9515399     0.010418767
      3932.91       1.9535636     0.010254303
      3936.84       1.9465304     0.010132926
      3940.78       1.9447160     0.010016607
      3944.72       1.9396391    0.0098705850
      3948.67       1.9262475    0.0097897930
      3952.61       1.9189407    0.0096932741
      3956.57       1.9133840    0.0095719249
      3960.52       1.8857924    0.0094929848
      3964.48       1.8686909    0.0095564575
      3968.45       1.8501559    0.0093876840
      3972.42       1.8283939    0.0092773727
      3976.39       1.7979341    0.0092601015
      3980.37       1.7827968    0.0092785428
      3984.35       1.7559797    0.0093252019
      3988.33       1.7352352    0.0093651484
      3992.32       1.7159157    0.0094627958
      3996.31       1.6983801    0.0095125017
      4000.31       1.6760216    0.0095820896
      4004.31       1.6744780    0.0096511451
      4008.31       1.6738873    0.0096970287
      4012.32       1.6625874    0.0097132602
      4016.33       1.6601559    0.0097770351
      4020.35       1.6559669    0.0097864779
      4024.37       1.6590715    0.0098527122
      4028.40       1.6658322    0.0098830414
      4032.42       1.6729629    0.0099598417
      4036.46       1.6749676     0.010106642
      4040.50       1.6908780     0.010301124
      4044.54       1.7015520     0.010323355
      4048.58       1.7134100     0.010406346
      4052.63       1.7232670     0.010547041
      4056.68       1.7353166     0.010616093
      4060.74       1.7510499     0.010675465
      4064.80       1.7614187     0.010787540
      4068.86       1.7806977     0.010821022
      4072.93       1.7878900     0.010874872
      4077.01       1.7909685     0.010906329
      4081.08       1.8082059     0.010923827
      4085.17       1.8086697     0.010888404
      4089.25       1.8014545     0.010900459
      4093.34       1.8069408     0.010859326
      4097.43       1.8125901     0.010770024
      4101.53       1.8050360     0.010693171
      4105.63       1.8044193     0.010611095
      4109.74       1.7959002     0.010505523
      4113.85       1.7845241     0.010363151
      4117.96       1.7702248     0.010274688
      4122.08       1.7549391     0.010116652
      4126.20       1.7420642    0.0099766242
      4130.33       1.7257105    0.0098327056
      4134.46       1.7112253    0.0098291405
      4138.59       1.6987548    0.0095954207
      4142.73       1.6843629    0.0094129778
      4146.88       1.6791427    0.0092769548
      4151.02       1.6630844    0.0091919812
      4155.18       1.6519332    0.0091243593
      4159.33       1.6390617    0.0090727515
      4163.49       1.6252577    0.0090977844
      4167.65       1.6160793    0.0089448188
      4171.82       1.6055353    0.0088409892
      4175.99       1.5963451    0.0087984813
      4180.17       1.5837673    0.0087568041
      4184.35       1.5768184    0.0086918228
      4188.54       1.5660054    0.0086430604
      4192.72       1.5562779    0.0085861059
      4196.92       1.5503193    0.0085229165
      4201.11       1.5454162    0.0084228590
      4205.31       1.5385072    0.0083941374
      4209.52       1.5291762    0.0083638675
      4213.73       1.5187353    0.0083800170
      4217.94       1.5102657    0.0082456354
      4222.16       1.4987868    0.0081692971
      4226.38       1.4838785    0.0081185442
      4230.61       1.4706449    0.0080823193
      4234.84       1.4556462    0.0080715307
      4239.08       1.4417411    0.0081026840
      4243.32       1.4255948    0.0081644447
      4247.56       1.4154711    0.0080407802
      4251.81       1.4035182    0.0080335776
      4256.06       1.3985190    0.0080232735
      4260.32       1.3940413    0.0079862385
      4264.58       1.3802272    0.0079687666
      4268.84       1.3766066    0.0079477135
      4273.11       1.3708543    0.0079232090
      4277.38       1.3712462    0.0078954682
      4281.66       1.3747744    0.0078445294
      4285.94       1.3712977    0.0078115280
      4290.23       1.3687104    0.0077762706
      4294.52       1.3695592    0.0077391102
      4298.81       1.3733318    0.0077004052
      4303.11       1.3738414    0.0076368798
      4307.42       1.3809391    0.0075962623
      4311.72       1.3826046    0.0075552588
      4316.04       1.3800691    0.0075142501
      4320.35       1.3832168    0.0074736074
      4324.67       1.3841488    0.0074114996
      4329.00       1.3896257    0.0073728499
      4333.33       1.3928235    0.0073356023
      4337.66       1.3937576    0.0073000570
      4342.00       1.3877333    0.0072664793
      4346.34       1.3807538    0.0072135688
      4350.69       1.3841827    0.0072028059
      4355.04       1.3804771    0.0071765296
      4359.39       1.3780666    0.0071530031
      4363.75       1.3779327    0.0071121623
      4368.12       1.3777983    0.0070945495
      4372.48       1.3826399    0.0070800525
      4376.86       1.3882437    0.0070496325
      4381.23       1.3982448    0.0070419378
      4385.61       1.4034778    0.0070376986
      4390.00       1.4095628    0.0070370538
      4394.39       1.4096553    0.0070401257
      4398.79       1.4160450    0.0070469195
      4403.18       1.4121452    0.0070394389
      4407.59       1.4130775    0.0070537629
      4412.00       1.4120462    0.0070719783
      4416.41       1.4045400    0.0070970623
      4420.82       1.3948535    0.0071230623
      4425.25       1.3797451    0.0071356894
      4429.67       1.3747241    0.0071688600
      4434.10       1.3628304    0.0072262960
      4438.54       1.3519611    0.0072481626
      4442.97       1.3463939    0.0072892150
      4447.42       1.3432828    0.0073145860
      4451.86       1.3460229    0.0073798724
      4456.32       1.3495236    0.0074060905
      4460.77       1.3558018    0.0074485993
      4465.24       1.3651459    0.0074948209
      4469.70       1.3741584    0.0075335898
      4474.17       1.3842178    0.0075512762
      4478.65       1.3940571    0.0076058924
      4483.12       1.4055455    0.0076143370
      4487.61       1.4069559    0.0076366902
      4492.09       1.4074596    0.0076545950
      4496.59       1.4130076    0.0076435623
      4501.08       1.4132760    0.0076449904
      4505.58       1.4056816    0.0076383399
      4510.09       1.4035582    0.0076235693
      4514.60       1.4040639    0.0075985404
      4519.12       1.3952964    0.0075672953
      4523.63       1.3938022    0.0075065307
      4528.16       1.3874364    0.0074555485
      4532.69       1.3785837    0.0074031264
      4537.22       1.3769468    0.0074427782
      4541.76       1.3793445    0.0072701095
      4546.30       1.3813565    0.0072009485
      4550.85       1.3851860    0.0071242731
      4555.40       1.3897336    0.0070796327
      4559.95       1.3920865    0.0070473812
      4564.51       1.3939030    0.0070073670
      4569.08       1.3992755    0.0069681850
      4573.65       1.3939420    0.0069381067
      4578.22       1.3927836    0.0068351076
      4582.80       1.4007123    0.0067567250
      4587.38       1.4001054    0.0066813003
      4591.97       1.4007359    0.0066262308
      4596.56       1.4023971    0.0065900350
      4601.16       1.3957820    0.0065186295
      4605.76       1.3970959    0.0064590211
      4610.37       1.4004197    0.0063866009
      4614.98       1.3996661    0.0063281515
      4619.59       1.4002220    0.0063082585
      4624.21       1.4014700    0.0062785340
      4628.84       1.4008310    0.0061729243
      4633.47       1.4014757    0.0061103057
      4638.10       1.3988258    0.0060364396
      4642.74       1.3967123    0.0060466578
      4647.38       1.3925948    0.0059524860
      4652.03       1.3900131    0.0059042678
      4656.68       1.3777055    0.0059037564
      4661.34       1.3668269    0.0059356559
      4666.00       1.3616700    0.0058693723
      4670.67       1.3539305    0.0059192003
      4675.33       1.3416845    0.0058876341
      4680.01       1.3281367    0.0058443938
      4684.69       1.3158667    0.0058100213
      4689.38       1.3002561    0.0057918841
      4694.07       1.2939590    0.0057761660
      4698.76       1.2857129    0.0057422974
      4703.46       1.2753448    0.0056961908
      4708.16       1.2639891    0.0056278143
      4712.87       1.2586998    0.0055631061
      4717.58       1.2511502    0.0054827100
      4722.30       1.2442676    0.0054193507
      4727.03       1.2418129    0.0053698245
      4731.75       1.2452463    0.0053462971
      4736.48       1.2409898    0.0052855625
      4741.22       1.2386161    0.0052244196
      4745.96       1.2329540    0.0052229932
      4750.71       1.2317775    0.0052904771
      4755.46       1.2272905    0.0052149919
      4760.22       1.2196163    0.0052633145
      4764.97       1.2104463    0.0053307166
      4769.74       1.1998955    0.0054036920
      4774.51       1.1872560    0.0055300139
      4779.29       1.1724503    0.0056742874
      4784.07       1.1630454    0.0058226735
      4788.85       1.1540187    0.0059790913
      4793.64       1.1429438    0.0061301014
      4798.43       1.1334468    0.0062718387
      4803.23       1.1277418    0.0064204662
      4808.03       1.1232100    0.0064679149
      4812.84       1.1201867    0.0065376024
      4817.66       1.1265296    0.0066093368
      4822.48       1.1270104    0.0066853252
      4827.30       1.1248654    0.0067648119
      4832.12       1.1275542    0.0068842569
      4836.96       1.1291438    0.0071135125
      4841.79       1.1316453    0.0073458351
      4846.63       1.1280890    0.0072041647
      4851.48       1.1251988    0.0073121530
      4856.33       1.1212543    0.0073753372
      4861.19       1.1140784    0.0074016442
      4866.05       1.1033115    0.0074207257
      4870.92       1.1006457    0.0074150248
      4875.79       1.0978001    0.0073652721
      4880.66       1.0882442    0.0073185814
      4885.55       1.0808071    0.0072470825
      4890.43       1.0793774    0.0071967683
      4895.32       1.0728318    0.0071691390
      4900.22       1.0777823    0.0069941968
      4905.12       1.0732031    0.0068940350
      4910.02       1.0773041    0.0067857525
      4914.94       1.0759737    0.0066910549
      4919.85       1.0802728    0.0065925883
      4924.77       1.0827329    0.0065317631
      4929.70       1.0877806    0.0065022170
      4934.62       1.0954031    0.0064540469
      4939.56       1.0991852    0.0063712816
      4944.50       1.0979361    0.0063530397
      4949.44       1.1016157    0.0063145318
      4954.39       1.0990427    0.0063002241
      4959.35       1.0954050    0.0062941089
      4964.31       1.0930581    0.0062970007
      4969.27       1.0842679    0.0062941214
      4974.24       1.0762301    0.0063284444
      4979.22       1.0685864    0.0064041503
      4984.20       1.0578854    0.0063736686
      4989.18       1.0508052    0.0064176890
      4994.17       1.0475796    0.0064613533
      4999.16       1.0399494    0.0065531774
      5004.16       1.0379892    0.0066315753
      5009.17       1.0363218    0.0067360813
      5014.18       1.0384092    0.0068357444
      5019.19       1.0389767    0.0069203679
      5024.21       1.0457084    0.0070204546
      5029.23       1.0504238    0.0071046729
      5034.26       1.0567931    0.0071824886
      5039.30       1.0575194    0.0072241728
      5044.34       1.0606064    0.0072755533
      5049.39       1.0613134    0.0073101519
      5054.43       1.0652262    0.0073440141
      5059.49       1.0653126    0.0073767503
      5064.55       1.0656644    0.0073961882
      5069.61       1.0619795    0.0074678602
      5074.68       1.0597007    0.0075345835
      5079.76       1.0586045    0.0075067473
      5084.84       1.0606200    0.0074998808
      5089.92       1.0628577    0.0074962064
      5095.01       1.0675064    0.0074948497
      5100.11       1.0718375    0.0074393269
      5105.21       1.0789280    0.0073820518
      5110.31       1.0851638    0.0073061201
      5115.42       1.0916335    0.0072904286
      5120.54       1.0955657    0.0071051435
      5125.66       1.1016128    0.0069698464
      5130.79       1.1045520    0.0068469942
      5135.92       1.1028831    0.0067421084
      5141.05       1.1018812    0.0066578202
      5146.20       1.1123227    0.0065400039
      5151.34       1.1073793    0.0064266514
      5156.49       1.1070936    0.0064058460
      5161.65       1.1047805    0.0062099567
      5166.81       1.1050687    0.0060682032
      5171.98       1.1121528    0.0059627830
      5177.15       1.1173518    0.0058896755
      5182.33       1.1177934    0.0058361431
      5187.51       1.1180990    0.0058003780
      5192.70       1.1161372    0.0057827186
      5197.89       1.1140999    0.0057729084
      5203.09       1.1142854    0.0057871885
      5208.29       1.1069874    0.0058493613
      5213.50       1.0998285    0.0059522226
      5218.72       1.0938315    0.0059570940
      5223.93       1.0876678    0.0060310451
      5229.16       1.0725978    0.0061151175
      5234.39       1.0579587    0.0062121808
      5239.62       1.0484725    0.0063069108
      5244.86       1.0402083    0.0064473109
      5250.11       1.0208362    0.0066263031
      5255.36       1.0109723    0.0068900564
      5260.61       1.0022033    0.0069407094
