# starting wavelength =        2821.5910
# ending wavelength =        9270.1418
# O2 telluric scale =        0
# O2 telluric shift =        0
# H2O telluric scale =        0
# H2O telluric shift =        0
      2822.24       3.0128237      0.21985985
      2825.06       2.9988239      0.21514021
      2827.88       2.9714968      0.20676762
      2830.71       3.0205444      0.20274225
      2833.54       3.1036707      0.19447786
      2836.38       2.9874376      0.18658268
      2839.21       2.9785557      0.18270533
      2842.05       2.9954933      0.17495784
      2844.90       2.9695884      0.17156400
      2847.74       2.9140025      0.16533589
      2850.59       2.9200152      0.16262778
      2853.44       2.9012162      0.15613568
      2856.29       2.8822258      0.15260496
      2859.15       2.8794626      0.14551819
      2862.01       2.9184705      0.14182228
      2864.87       2.9040227      0.13645011
      2867.74       2.9385269      0.13148509
      2870.60       2.9444210      0.12915849
      2873.47       2.9410073      0.12527297
      2876.35       2.9267809      0.12356321
      2879.22       2.9573805      0.12053927
      2882.10       2.9504387      0.11903689
      2884.99       2.9546449      0.11648705
      2887.87       2.9828301      0.11560375
      2890.76       3.0048016      0.11326367
      2893.65       3.0292212      0.11140307
      2896.54       3.0439611      0.11066261
      2899.44       3.0718065      0.10774517
      2902.34       3.0373896      0.10687964
      2905.24       2.9980977      0.10428343
      2908.15       3.0167082      0.10280825
      2911.06       3.0478439     0.099686001
      2913.97       3.0796117     0.098530496
      2916.88       3.1322347     0.095807012
      2919.80       3.1290219     0.093828278
      2922.72       3.1213650     0.093122869
      2925.64       3.1171307     0.091125246
      2928.57       3.1408949     0.090500201
      2931.50       3.1301610     0.088590624
      2934.43       3.0976434     0.087494601
      2937.36       3.1376272     0.085459220
      2940.30       3.1580532     0.083824340
      2943.24       3.1304192     0.083695765
      2946.18       3.1333865     0.082215289
      2949.13       3.1134133     0.082094375
      2952.08       3.1033720     0.080924247
      2955.03       3.0907756     0.080301393
      2957.99       3.0646929     0.079034745
      2960.94       3.0238962     0.077839042
      2963.90       3.0240624     0.077269048
      2966.87       2.9913127     0.076175879
      2969.84       2.9416546     0.076147636
      2972.81       2.9253924     0.074547879
      2975.78       2.8857160     0.074402228
      2978.76       2.8518800     0.073187159
      2981.73       2.8508361     0.072005141
      2984.72       2.8137731     0.071341134
      2987.70       2.7828886     0.069940728
      2990.69       2.7611210     0.069446153
      2993.68       2.7647402     0.067511331
      2996.67       2.7445458     0.066237521
      2999.67       2.7404131     0.065752279
      3002.67       2.7553482     0.063387363
      3005.67       2.7654270     0.062520296
      3008.68       2.7512111     0.060286799
      3011.69       2.7408567     0.059376853
      3014.70       2.7635219     0.057667774
      3017.71       2.7690722     0.056468392
      3020.73       2.7739619     0.056308304
      3023.75       2.7673777     0.055268611
      3026.78       2.7666518     0.055314272
      3029.80       2.7421832     0.054956992
      3032.83       2.7483875     0.054816500
      3035.87       2.7385531     0.054746001
      3038.90       2.7377077     0.054720116
      3041.94       2.7323249     0.055122458
      3044.98       2.7321637     0.054460913
      3048.03       2.7503705     0.054088849
      3051.08       2.7598277     0.054116905
      3054.13       2.7857716     0.053007708
      3057.18       2.7845733     0.052419278
      3060.24       2.7940311     0.051329402
      3063.30       2.8246140     0.050232153
      3066.36       2.8346996     0.049859935
      3069.43       2.8392034     0.048707532
      3072.50       2.8335795     0.048494572
      3075.57       2.8600247     0.047903905
      3078.65       2.8832165     0.047089073
      3081.73       2.8862894     0.047221923
      3084.81       2.9004634     0.047062830
      3087.89       2.9281796     0.046773979
      3090.98       2.9160809     0.046542383
      3094.07       2.9146270     0.046209218
      3097.17       2.9421409     0.046459660
      3100.26       2.9483214     0.046417678
      3103.36       2.9365680     0.045842594
      3106.47       2.9179475     0.046082047
      3109.58       2.9177695     0.045458046
      3112.68       2.9009067     0.045400668
      3115.80       2.8805073     0.044452791
      3118.91       2.8832625     0.043916632
      3122.03       2.8589201     0.044088778
      3125.15       2.8525915     0.043967176
      3128.28       2.8290960     0.043471242
      3131.41       2.8273286     0.043978216
      3134.54       2.8274558     0.043783499
      3137.67       2.8083275     0.043962253
      3140.81       2.8081995     0.043157408
      3143.95       2.7943759     0.042774296
      3147.10       2.7769674     0.042924300
      3150.24       2.7580597     0.042403083
      3153.39       2.7564955     0.041917463
      3156.55       2.7474454     0.041766183
      3159.70       2.7461578     0.041414032
      3162.86       2.7271841     0.040701265
      3166.03       2.7176621     0.040330479
      3169.19       2.6989722     0.039332801
      3172.36       2.6808469     0.039019853
      3175.54       2.6910726     0.038417202
      3178.71       2.6857734     0.038260586
      3181.89       2.6768236     0.038770131
      3185.07       2.6819536     0.038645064
      3188.26       2.6800675     0.039019503
      3191.45       2.6641537     0.039644884
      3194.64       2.6455854     0.040843016
      3197.83       2.6243062     0.041689534
      3201.03       2.6212387     0.043367989
      3204.23       2.5831162     0.041102843
      3207.44       2.5686112     0.041357005
      3210.64       2.5721606     0.042235184
      3213.85       2.5771026     0.042403236
      3217.07       2.5766939     0.043260288
      3220.28       2.5866590     0.043390702
      3223.51       2.5659522     0.043296588
      3226.73       2.5649266     0.043822614
      3229.96       2.5607644     0.043191858
      3233.19       2.5715624     0.042249023
      3236.42       2.5774344     0.041074321
      3239.66       2.5748771     0.039803573
      3242.90       2.5868113     0.038623385
      3246.14       2.6009766     0.037595321
      3249.39       2.6184224     0.036610387
      3252.64       2.6031030     0.035825774
      3255.89       2.6107142     0.035417818
      3259.14       2.6242476     0.035211546
      3262.40       2.6052483     0.034948188
      3265.67       2.5812836     0.035869838
      3268.93       2.5549304     0.039533525
      3272.20       2.5686618     0.038273520
      3275.47       2.5693803     0.037623389
      3278.75       2.5663311     0.036539823
      3282.03       2.5932843     0.036583759
      3285.31       2.5799946     0.036963410
      3288.60       2.5534041     0.036550844
      3291.88       2.5323984     0.036018987
      3295.18       2.5313175     0.036044188
      3298.47       2.5415952     0.035226461
      3301.77       2.5446718     0.034752394
      3305.07       2.5510720     0.034657154
      3308.38       2.5624453     0.034067214
      3311.69       2.5904440     0.033456767
      3315.00       2.6076887     0.033483385
      3318.31       2.6056916     0.032603111
      3321.63       2.5968641     0.032192220
      3324.95       2.5737488     0.031918070
      3328.28       2.5791647     0.032175835
      3331.61       2.5747961     0.032256368
      3334.94       2.5689202     0.032481859
      3338.27       2.5702515     0.032610536
      3341.61       2.5887356     0.032807807
      3344.95       2.5996760     0.032887284
      3348.30       2.6071026     0.033327575
      3351.65       2.5953236     0.033258239
      3355.00       2.5836729     0.033252348
      3358.35       2.6051218     0.033229405
      3361.71       2.5957732     0.033281434
      3365.07       2.5953824     0.033380765
      3368.44       2.6022469     0.033529931
      3371.81       2.5984424     0.034190285
      3375.18       2.6218339     0.034310060
      3378.56       2.6392045     0.033626707
      3381.94       2.6280963     0.033202424
      3385.32       2.6220823     0.032635768
      3388.70       2.6203247     0.032616195
      3392.09       2.6180420     0.031605652
      3395.48       2.6194050     0.030968836
      3398.88       2.6172209     0.030487820
      3402.28       2.6301791     0.030176999
      3405.68       2.6499442     0.029993751
      3409.09       2.6651649     0.029830737
      3412.49       2.6734326     0.029665461
      3415.91       2.6803228     0.029399411
      3419.32       2.6729887     0.029196140
      3422.74       2.6539720     0.029088909
      3426.17       2.6372880     0.029013663
      3429.59       2.6154469     0.028878285
      3433.02       2.6104049     0.028783259
      3436.45       2.6063894     0.028894666
      3439.89       2.6082131     0.028949687
      3443.33       2.6072881     0.029173542
      3446.78       2.5843344     0.029411170
      3450.22       2.5800540     0.029659345
      3453.67       2.5679070     0.029360591
      3457.13       2.5566520     0.029520428
      3460.58       2.5426785     0.029908357
      3464.04       2.5264372     0.029941731
      3467.51       2.5337837     0.029906271
      3470.98       2.5256697     0.028797372
      3474.45       2.5040022     0.028225193
      3477.92       2.4982850     0.028393537
      3481.40       2.4840112     0.028223887
      3484.88       2.4613720     0.028121356
      3488.37       2.4361183     0.028094862
      3491.86       2.4369049     0.027649170
      3495.35       2.4307254     0.027454016
      3498.84       2.4268945     0.027531769
      3502.34       2.4406222     0.027087480
      3505.84       2.4559367     0.026644724
      3509.35       2.4656862     0.026015300
      3512.86       2.4608495     0.025726595
      3516.37       2.4684718     0.025507174
      3519.89       2.4674767     0.025413960
      3523.41       2.4663032     0.025781779
      3526.93       2.4454786     0.025677506
      3530.46       2.4393046     0.026056194
      3533.99       2.4424883     0.025739261
      3537.53       2.4355739     0.025225711
      3541.06       2.4326121     0.025002590
      3544.60       2.4225671     0.025318886
      3548.15       2.4020342     0.025076091
      3551.70       2.3818016     0.025236682
      3555.25       2.3730592     0.025481253
      3558.80       2.3825381     0.025708338
      3562.36       2.3640323     0.025741165
      3565.92       2.3657996     0.025513185
      3569.49       2.3846018     0.024831739
      3573.06       2.3985203     0.024904819
      3576.64       2.3977534     0.024464166
      3580.21       2.3945662     0.024054311
      3583.79       2.3988933     0.023753243
      3587.38       2.3889800     0.023651705
      3590.96       2.3851202     0.023926319
      3594.55       2.3771172     0.023942589
      3598.15       2.3713599     0.024255732
      3601.75       2.3798667     0.024410488
      3605.35       2.4012376     0.024604733
      3608.96       2.3976265     0.024775660
      3612.56       2.3973157     0.024889730
      3616.18       2.3977412     0.024601406
      3619.79       2.4008775     0.024667643
      3623.41       2.4058261     0.024770055
      3627.04       2.4025761     0.024825970
      3630.66       2.3924395     0.025174751
      3634.29       2.3934274     0.025221485
      3637.93       2.3870755     0.025230898
      3641.57       2.3694124     0.025193403
      3645.21       2.3668911     0.024875610
      3648.86       2.3394204     0.024933274
      3652.50       2.3129290     0.025050588
      3656.16       2.2793971     0.025211471
      3659.81       2.2484743     0.025386113
      3663.47       2.2276558     0.025280276
      3667.14       2.1921169     0.025533682
      3670.80       2.1684040     0.025176522
      3674.48       2.1694056     0.025274522
      3678.15       2.1301877     0.025400041
      3681.83       2.1066975     0.025535122
      3685.51       2.0873822     0.026356443
      3689.20       2.0757836     0.027294859
      3692.88       2.0593656     0.028392443
      3696.58       2.0517983     0.029860098
      3700.27       2.0582503     0.032071085
      3703.98       2.0761962     0.026733603
      3707.68       2.0881068     0.027434818
      3711.39       2.1068003     0.028317992
      3715.10       2.1384207     0.029658773
      3718.81       2.1219385     0.031181766
      3722.53       2.1516162     0.032684934
      3726.26       2.1646547     0.033933811
      3729.98       2.1672613     0.034872527
      3733.71       2.1485907     0.033289900
      3737.45       2.1473977     0.031575302
      3741.18       2.1640111     0.028668914
      3744.93       2.1462520     0.027239668
      3748.67       2.1064032     0.026095312
      3752.42       2.0993538     0.025475281
      3756.17       2.0993871     0.030415566
      3759.93       2.0708134     0.027926072
      3763.69       2.0533453     0.026680065
      3767.45       2.0692788     0.025240924
      3771.22       2.0586325     0.024114699
      3774.99       2.0386204     0.023199831
      3778.77       2.0425358     0.022847469
      3782.54       2.0439673     0.022336299
      3786.33       2.0446052     0.022067659
      3790.11       2.0553062     0.021834738
      3793.90       2.0981153     0.021623992
      3797.70       2.0882255     0.021481883
      3801.50       2.0916618     0.021299629
      3805.30       2.1071150     0.021114955
      3809.10       2.1053073     0.020977036
      3812.91       2.1022850     0.020897409
      3816.73       2.0648800     0.020740627
      3820.54       2.0529384     0.020660369
      3824.36       2.0556877     0.020918340
      3828.19       2.0507403     0.021515648
      3832.02       2.0247198     0.022334621
      3835.85       2.0598014     0.021249300
      3839.68       2.0243930     0.021228076
      3843.52       1.9819847     0.021776345
      3847.37       1.9512491     0.022495515
      3851.22       1.9265031     0.023274356
      3855.07       1.9164992     0.023944942
      3858.92       1.9258197     0.024474988
      3862.78       1.9379213     0.024709745
      3866.64       1.9253125     0.024417158
      3870.51       1.8857662     0.023976977
      3874.38       1.8744447     0.023341838
      3878.26       1.8877936     0.022635704
      3882.13       1.8793826     0.022000372
      3886.02       1.8928885     0.021446200
      3889.90       1.9039062     0.020925748
      3893.79       1.9358362     0.020708364
      3897.69       1.9711446     0.021265387
      3901.59       2.0196829     0.022019780
      3905.49       2.0310690     0.021165730
      3909.39       2.0408258     0.020532005
      3913.30       2.0247888     0.020562895
      3917.22       2.0406128     0.020588947
      3921.13       2.0605807     0.020651313
      3925.06       2.0557574     0.020790341
      3928.98       2.0676775     0.020909757
      3932.91       2.0663004     0.021002539
      3936.84       2.0811482     0.021043930
      3940.78       2.0591250     0.021064956
      3944.72       2.0367922     0.021079797
      3948.67       2.0297465     0.021082429
      3952.61       2.0307102     0.021076604
      3956.57       2.0214723     0.021120497
      3960.52       2.0309971     0.021224725
      3964.48       2.0352702     0.021364522
      3968.45       2.0416481     0.021585287
      3972.42       2.0339240     0.021825583
      3976.39       2.0287633     0.021939488
      3980.37       2.0297285     0.022051393
      3984.35       2.0393041     0.022119685
      3988.33       2.0440704     0.022161819
      3992.32       2.0574565     0.022132318
      3996.31       2.0605459     0.022038139
      4000.31       2.0682798     0.021934883
      4004.31       2.0839251     0.021833922
      4008.31       2.0959952     0.021700670
      4012.32       2.1153874     0.021573317
      4016.33       2.0975873     0.021477969
      4020.35       2.0814404     0.021374208
      4024.37       2.0784302     0.021262233
      4028.40       2.0700583     0.021771388
      4032.42       2.0657074     0.022428895
      4036.46       2.0664538     0.020860672
      4040.50       2.0534804     0.020771809
      4044.54       2.0468096     0.021098248
      4048.58       2.0398076     0.021613522
      4052.63       2.0371130     0.022225795
      4056.68       2.0478612     0.022848461
      4060.74       2.0414171     0.023435919
      4064.80       2.0305019     0.024668997
      4068.86       2.0367330     0.026271915
      4072.93       2.0321394     0.025728496
      4077.01       2.0266494     0.024095673
      4081.08       2.0285518     0.024087763
      4085.17       2.0226211     0.023999797
      4089.25       2.0123619     0.024076641
      4093.34       1.9961478     0.024102256
      4097.43       1.9629395     0.024141628
      4101.53       1.9415462     0.024960591
      4105.63       1.9057563     0.026952384
      4109.74       1.8947024     0.024942946
      4113.85       1.8841126     0.023457066
      4117.96       1.8826579     0.022784891
      4122.08       1.8925187     0.022090748
      4126.20       1.8967587     0.021434830
      4130.33       1.9087012     0.020730466
      4134.46       1.9100594     0.020446989
      4138.59       1.9120604     0.020587575
      4142.73       1.9290920     0.021823605
      4146.88       1.9304702     0.021056606
      4151.02       1.9396857     0.020463854
      4155.18       1.9304450     0.020184102
      4159.33       1.9210957     0.020165043
      4163.49       1.9109297     0.019969346
      4167.65       1.9068515     0.020242771
      4171.82       1.8873134     0.020233747
      4175.99       1.8692844     0.020226377
      4180.17       1.8707462     0.020226064
      4184.35       1.8653469     0.020227562
      4188.54       1.8661996     0.020247789
      4192.72       1.8620819     0.020277183
      4196.92       1.8790313     0.020097098
      4201.11       1.8794129     0.020172665
      4205.31       1.8733616     0.020251206
      4209.52       1.8656662     0.020270287
      4213.73       1.8777907     0.020504338
      4217.94       1.8817658     0.020521129
      4222.16       1.8868968     0.020569282
      4226.38       1.8810089     0.020404448
      4230.61       1.8847145     0.020446699
      4234.84       1.8580952     0.020476558
      4239.08       1.8484254     0.020498610
      4243.32       1.8496261     0.020546789
      4247.56       1.8371552     0.020569160
      4251.81       1.8287930     0.020758372
      4256.06       1.8336423     0.020435896
      4260.32       1.8362826     0.020327565
      4264.58       1.8332365     0.020197087
      4268.84       1.8336006     0.020064893
      4273.11       1.8366882     0.019928627
      4277.38       1.8475602     0.019809370
      4281.66       1.8417993     0.019735607
      4285.94       1.8362908     0.019737795
      4290.23       1.8382583     0.019713166
      4294.52       1.8636194     0.019901741
      4298.81       1.8575300     0.020441084
      4303.11       1.8611630     0.021171267
      4307.42       1.8548105     0.022181045
      4311.72       1.8587337     0.020342962
      4316.04       1.8509844     0.020503795
      4320.35       1.8583296     0.021158074
      4324.67       1.8561210     0.021864020
      4329.00       1.8496476     0.022863128
      4333.33       1.8493961     0.023890901
