# starting wavelength =        3018.6368
# ending wavelength =        7394.3477
# O2 telluric scale =        0
# O2 telluric shift =        0
# H2O telluric scale =        0
# H2O telluric shift =        0
      3020.73       2.0103072     0.078621239
      3023.75       2.0155570     0.062539753
      3026.78       2.0096802     0.057270558
      3029.80       2.0101975     0.049681609
      3032.83       2.0141890     0.041873706
      3035.87       2.0160429     0.039465456
      3038.90       2.0234328     0.034664261
      3041.94       2.0336590     0.033186138
      3044.98       2.0294199     0.030308619
      3048.03       2.0309260     0.029361671
      3051.08       2.0424346     0.027645690
      3054.13       2.0624885     0.026991496
      3057.18       2.0678776     0.025943322
      3060.24       2.0915764     0.025071520
      3063.30       2.0985804     0.024628888
      3066.36       2.1132047     0.024050003
      3069.43       2.1236180     0.023682304
      3072.50       2.1268845     0.023291127
      3075.57       2.1297330     0.022971411
      3078.65       2.1357609     0.023141142
      3081.73       2.1558447     0.023068906
      3084.81       2.1710652     0.022998553
      3087.89       2.1687488     0.022625993
      3090.98       2.1657445     0.022548925
      3094.07       2.1670545     0.022710997
      3097.17       2.1787078     0.022636598
      3100.26       2.1809944     0.022564195
      3103.36       2.1794926     0.022493821
      3106.47       2.1765860     0.022645912
      3109.58       2.1726949     0.022566604
      3112.68       2.1696852     0.022489556
      3115.80       2.1588363     0.022127000
      3118.91       2.1548445     0.022288434
      3122.03       2.1492920     0.022205387
      3125.15       2.1421262     0.022124682
      3128.28       2.1357716     0.022046359
      3131.41       2.1249356     0.022213574
      3134.54       2.1179378     0.022139141
      3137.67       2.1219662     0.021761463
      3140.81       2.1101700     0.021679912
      3143.95       2.0966473     0.021839323
      3147.10       2.0842114     0.021761736
      3150.24       2.0780684     0.021686943
      3153.39       2.0657631     0.021845053
      3156.55       2.0686610     0.021760402
      3159.70       2.0625054     0.021678782
      3162.86       2.0515610     0.021309117
      3166.03       2.0381801     0.021473348
      3169.19       2.0313663     0.021385884
      3172.36       2.0264248     0.021301569
      3175.54       2.0160633     0.021220389
      3178.71       1.9926597     0.021388266
      3181.89       1.9869314     0.021312477
      3185.07       1.9878060     0.020926271
      3188.26       1.9807814     0.021085136
      3191.45       1.9659350     0.021003812
      3194.64       1.9533082     0.020925967
      3197.83       1.9486584     0.020851648
      3201.03       1.9542444     0.021002222
      3204.23       1.9469379     0.020917812
      3207.44       1.9336893     0.020542576
      3210.64       1.9319471     0.020709986
      3213.85       1.9229857     0.020619944
      3217.07       1.9077070     0.020533877
      3220.28       1.8949980     0.020451826
      3223.51       1.8793520     0.020624380
      3226.73       1.8789094     0.020239920
      3229.96       1.8876111     0.020152809
      3233.19       1.8893701     0.020316554
      3236.42       1.8919947     0.020236536
      3239.66       1.8860542     0.020160979
      3242.90       1.8800405     0.020319764
      3246.14       1.8799495     0.020233129
      3249.39       1.8697490     0.019852806
      3252.64       1.8682898     0.019776992
      3255.89       1.8562397     0.019935002
      3259.14       1.8539751     0.019848316
      3262.40       1.8588242     0.019766621
      3265.67       1.8702297     0.019947690
      3268.93       1.8736898     0.019554111
      3272.20       1.8678086     0.019467798
      3275.47       1.8735962     0.019640315
      3278.75       1.8759045     0.019563263
      3282.03       1.8798619     0.019491740
      3285.31       1.8740990     0.019647765
      3288.60       1.8782939     0.019260681
      3291.88       1.8844444     0.019184900
      3295.18       1.8818100     0.019354275
      3298.47       1.8744744     0.019266691
      3301.77       1.8744912     0.019185356
      3305.07       1.8634510     0.019069195
      3308.38       1.8541471     0.018977354
      3311.69       1.8506687     0.018891961
      3315.00       1.8593286     0.019076666
      3318.31       1.8661699     0.019003007
      3321.63       1.8667797     0.018936162
      3324.95       1.8626947     0.018784360
      3328.28       1.8593461     0.018706944
      3331.61       1.8547417     0.018636461
      3334.94       1.8504583     0.018807968
      3338.27       1.8490962     0.018725145
      3341.61       1.8589546     0.018346194
      3344.95       1.8635373     0.018528479
      3348.30       1.8685989     0.018442244
      3351.65       1.8648436     0.018641504
      3355.00       1.8613351     0.018569821
      3358.35       1.8633430     0.018167885
      3361.71       1.8617662     0.018360477
      3365.07       1.8563976     0.018285832
      3368.44       1.8543410     0.018219567
      3371.81       1.8528507     0.018403952
      3375.18       1.8552197     0.018011025
      3378.56       1.8564432     0.017942352
      3381.94       1.8567217     0.018135961
      3385.32       1.8477597     0.018053937
      3388.70       1.8414546     0.018276744
      3392.09       1.8489322     0.017876628
      3395.48       1.8533144     0.017792427
      3398.88       1.8628290     0.018009453
      3402.28       1.8733464     0.017943443
      3405.68       1.8810328     0.017888798
      3409.09       1.8874982     0.017751745
      3412.49       1.8931879     0.017684586
      3415.91       1.8990668     0.017906150
      3419.32       1.8994730     0.017823932
      3422.74       1.8944629     0.017753691
      3426.17       1.8896973     0.017663568
      3429.59       1.8953065     0.017580304
      3433.02       1.8936186     0.017824334
      3436.45       1.8889267     0.017764351
      3439.89       1.8830157     0.017346196
      3443.33       1.8786343     0.017586441
      3446.78       1.8862317     0.017526171
      3450.22       1.8933342     0.017770582
      3453.67       1.8978746     0.017693774
      3457.13       1.9087785     0.017298888
      3460.58       1.9247856     0.017548078
      3464.04       1.9329436     0.017471643
      3467.51       1.9514380     0.017082629
      3470.98       1.9712284     0.017335627
      3474.45       1.9830134     0.017260195
      3477.92       1.9833304     0.016877537
      3481.40       1.9836186     0.017133521
      3484.88       1.9860384     0.017059691
      3488.37       1.9860347     0.016683816
      3491.86       1.9829953     0.016641848
      3495.35       1.9794343     0.016870375
      3498.84       1.9733275     0.016501752
      3502.34       1.9648667     0.016462484
      3505.84       1.9553724     0.016692568
      3509.35       1.9431263     0.016331670
      3512.86       1.9473675     0.016295705
      3516.37       1.9694889     0.016220664
      3519.89       1.9717880     0.016173941
      3523.41       1.9717874     0.016141818
      3526.93       1.9818583     0.016071453
      3530.46       1.9853382     0.016028919
      3533.99       1.9931619     0.016001215
      3537.53       1.9941274     0.015934699
      3541.06       1.9992164     0.015896919
      3544.60       1.9984268     0.015874138
      3548.15       1.9975906     0.015810627
      3551.70       1.9990426     0.015778028
      3555.25       1.9950767     0.015760626
      3558.80       1.9843539     0.015699170
      3562.36       1.9761489     0.015672127
      3565.92       1.9716987     0.015345550
      3569.49       1.9659470     0.015600059
      3573.06       1.9594856     0.015579037
      3576.64       1.9524319     0.015253033
      3580.21       1.9669308     0.015513188
      3583.79       1.9760846     0.015498587
      3587.38       1.9725627     0.015462113
      3590.96       1.9734428     0.015438382
      3594.55       1.9708223     0.015134043
      3598.15       1.9551169     0.015392195
      3601.75       1.9428059     0.015375508
      3605.35       1.9248924     0.015068570
      3608.96       1.9203460     0.015333665
      3612.56       1.9147255     0.015046947
      3616.18       1.9113744     0.015013868
      3619.79       1.9018141     0.015286523
      3623.41       1.8930074     0.014995349
      3627.04       1.8892570     0.014969853
      3630.66       1.8867103     0.015250757
      3634.29       1.8748748     0.014954049
      3637.93       1.8714665     0.015227478
      3641.57       1.8742491     0.014948415
      3645.21       1.8792144     0.014923063
      3648.86       1.8988305     0.015205544
      3652.50       1.8981852     0.014919143
      3656.16       1.8953724     0.014902502
      3659.81       1.8856468     0.014924208
      3663.47       1.8748205     0.014899962
      3667.14       1.8637786     0.014938023
      3670.80       1.8540336     0.014905790
      3674.48       1.8500942     0.014890975
      3678.15       1.8495817     0.014919547
      3681.83       1.8415177     0.014897379
      3685.51       1.8357626     0.014940817
      3689.20       1.8211661     0.014911058
      3692.88       1.8087058     0.014899168
      3696.58       1.7959755     0.014931648
      3700.27       1.7802848     0.014912598
      3703.98       1.7667254     0.014671996
      3707.68       1.7625552     0.014932326
      3711.39       1.7554667     0.014685222
      3715.10       1.7519644     0.014957922
      3718.81       1.7441305     0.014943260
      3722.53       1.7396846     0.014707871
      3726.26       1.7332006     0.014967412
      3729.98       1.7205145     0.014725795
      3733.71       1.7178386     0.014996441
      3737.45       1.7145059     0.014748250
      3741.18       1.7169371     0.015029834
      3744.93       1.7220665     0.015014402
      3748.67       1.7341819     0.014779136
      3752.42       1.7352071     0.015045418
      3756.17       1.7396193     0.014804073
      3759.93       1.7380627     0.015079914
      3763.69       1.7314567     0.014832275
      3767.45       1.7316282     0.014843888
      3771.22       1.7380314     0.014863367
      3774.99       1.7432688     0.014870044
      3778.77       1.7414877     0.015138028
      3782.54       1.7436638     0.014898725
      3786.33       1.7435474     0.015174699
      3790.11       1.7321263     0.014929538
      3793.90       1.7290484     0.014945266
      3797.70       1.7236814     0.014962133
      3801.50       1.7136437     0.014973419
      3805.30       1.7057301     0.014996108
      3809.10       1.7095184     0.015003041
      3812.91       1.7278956     0.015031068
      3816.73       1.7366688     0.015033773
      3820.54       1.7446644     0.014790260
      3824.36       1.7449673     0.015065234
      3828.19       1.7551329     0.015083696
      3832.02       1.7517748     0.015097086
      3835.85       1.7619673     0.015111786
      3839.68       1.7816382     0.015128983
      3843.52       1.8009551     0.015140080
      3847.37       1.8177689     0.015160588
      3851.22       1.8227871     0.015168214
      3855.07       1.8296821     0.014913600
      3858.92       1.8276905     0.015195859
      3862.78       1.8237627     0.014943166
      3866.64       1.8289984     0.015222717
      3870.51       1.8389537     0.014971570
      3874.38       1.8342069     0.015248479
      3878.26       1.8375891     0.014998477
      3882.13       1.8395448     0.015272850
      3886.02       1.8394579     0.015023573
      3889.90       1.8356565     0.015295538
      3893.79       1.8300008     0.015046600
      3897.69       1.8280877     0.015316082
      3901.59       1.8351790     0.015067347
      3905.49       1.8300523     0.015056143
      3909.39       1.8289738     0.015085514
      3913.30       1.8207627     0.015072272
      3917.22       1.8205037     0.015100808
      3921.13       1.8166574     0.015085749
      3925.06       1.8051179     0.015113026
      3928.98       1.7880581     0.015096364
      3932.91       1.7632922     0.015122020
      3936.84       1.7527106     0.015103816
      3940.78       1.7441845     0.015127435
      3944.72       1.7306356     0.015108036
      3948.67       1.7107827     0.015129078
      3952.61       1.6991132     0.015108725
      3956.57       1.6789751     0.015126844
      3960.52       1.6687039     0.015105673
      3964.48       1.6631554     0.015120440
      3968.45       1.6587954     0.015098733
      3972.42       1.6561592     0.015109806
      3976.39       1.6519183     0.014855340
      3980.37       1.6400215     0.015094655
      3984.35       1.6251269     0.014839647
      3988.33       1.6179591     0.015074944
      3992.32       1.6113588     0.014819598
      3996.31       1.6155622     0.015050438
      4000.31       1.6199118     0.014795082
      4004.31       1.6076588     0.015021111
      4008.31       1.6075016     0.014765985
      4012.32       1.6152730     0.014986815
      4016.33       1.6114575     0.014732266
      4020.35       1.6125629     0.014947620
      4024.37       1.6112474     0.014693967
      4028.40       1.6192864     0.014668416
      4032.42       1.6276157     0.014651185
      4036.46       1.6334735     0.014619786
      4040.50       1.6406622     0.014604157
      4044.54       1.6549555     0.014566802
      4048.58       1.6575421     0.014553070
      4052.63       1.6560719     0.014509737
      4056.68       1.6501267     0.014716932
      4060.74       1.6479440     0.014448849
      4064.80       1.6375500     0.014414078
      4068.86       1.6364111     0.014384412
      4072.93       1.6453382     0.014343358
      4077.01       1.6459813     0.014316813
      4081.08       1.6378564     0.014269439
      4085.17       1.6311667     0.014246278
      4089.25       1.6196705     0.014192584
      4093.34       1.6109336     0.013927113
      4097.43       1.6079430     0.014113136
      4101.53       1.6087831     0.013843370
      4105.63       1.6086793     0.014031407
      4109.74       1.6011857     0.013978455
      4113.85       1.5909778     0.013947697
      4117.96       1.5909888     0.013888285
      4122.08       1.5915017     0.013623266
      4126.20       1.5828797     0.013796518
      4130.33       1.5673662     0.013527253
      4134.46       1.5577217     0.013703454
      4138.59       1.5548113     0.013429969
      4142.73       1.5363928     0.013382892
      4146.88       1.5357562     0.013543325
      4151.02       1.5246018     0.013278220
      4155.18       1.5168122     0.013442374
      4159.33       1.5132975     0.013173057
      4163.49       1.4994852     0.013124276
      4167.65       1.4888927     0.013067702
      4171.82       1.4827983     0.013012466
      4175.99       1.4758729     0.013166509
      4180.17       1.4659175     0.012900929
      4184.35       1.4561566     0.012849878
      4188.54       1.4475953     0.012790020
      4192.72       1.4444793     0.012732556
      4196.92       1.4336906     0.012680104
      4201.11       1.4318087     0.012616319
      4205.31       1.4134338     0.012562681
      4209.52       1.4042650     0.012501567
      4213.73       1.3998503     0.012441515
      4217.94       1.3949816     0.012388587
      4222.16       1.3858885     0.012322387
      4226.38       1.3843180     0.012265799
      4230.61       1.3755028     0.012205519
      4234.84       1.3731040     0.012142707
      4239.08       1.3750839     0.011898975
      4243.32       1.3673225     0.012022496
      4247.56       1.3654640     0.011789201
      4251.81       1.3602886     0.011905421
      4256.06       1.3567186     0.011839810
      4260.32       1.3533744     0.011603780
      4264.58       1.3574868     0.011720418
      4268.84       1.3545905     0.011657776
      4273.11       1.3561915     0.011419800
      4277.38       1.3535167     0.011536688
      4281.66       1.3569827     0.011310382
      4285.94       1.3528222     0.011237659
      4290.23       1.3561780     0.011354634
      4294.52       1.3554481     0.011127738
      4298.81       1.3503650     0.011057826
      4303.11       1.3484646     0.011022699
      4307.42       1.3405617     0.010948029
      4311.72       1.3378787     0.010880834
      4316.04       1.3338714     0.010843627
      4320.35       1.3270129     0.010771807
      4324.67       1.3162952     0.010707272
      4329.00       1.3100520     0.010668649
      4333.33       1.3042817     0.010599636
      4337.66       1.3068503     0.010388196
      4342.00       1.3062742     0.010498380
      4346.34       1.3084181     0.010432137
      4350.69       1.3066297     0.010225375
      4355.04       1.3107455     0.010333460
      4359.39       1.3189178     0.010269991
      4363.75       1.3230160     0.010067802
      4368.12       1.3255561     0.010174573
      4372.48       1.3299818     0.010113905
      4376.86       1.3351629    0.0099161743
      4381.23       1.3425486     0.010022425
      4385.61       1.3466478    0.0099646106
      4390.00       1.3525240    0.0097712478
      4394.39       1.3638417    0.0098777868
      4398.79       1.3718570    0.0098228707
      4403.18       1.3834901    0.0096337720
      4407.59       1.3930477    0.0097414139
      4412.00       1.4073607    0.0096895040
      4416.41       1.4153904    0.0095046041
      4420.82       1.4214949    0.0094651001
      4425.25       1.4237179    0.0095653464
      4429.67       1.4182028    0.0093845113
      4434.10       1.4151772    0.0093479204
      4438.54       1.4196494    0.0094512381
      4442.97       1.4243205    0.0092743954
      4447.42       1.4207221    0.0092408717
      4451.86       1.4174327    0.0093480598
      4456.32       1.4148061    0.0091751004
      4460.77       1.4190693    0.0091447904
      4465.24       1.4174411    0.0091202613
      4469.70       1.4120340    0.0090875065
      4474.17       1.4091747    0.0090605860
      4478.65       1.4145862    0.0090393775
      4483.12       1.4092978    0.0088840979
      4487.61       1.4147804    0.0089890983
      4492.09       1.4200088    0.0089713211
      4496.59       1.4193551    0.0088245531
      4501.08       1.4111584    0.0089309837
      4505.58       1.4023698    0.0089166270
      4510.09       1.3911725    0.0089077236
      4514.60       1.3834837    0.0087629035
      4519.12       1.3790596    0.0088754300
      4523.63       1.3762203    0.0088695683
      4528.16       1.3748799    0.0087337588
      4532.69       1.3642890    0.0087261091
      4537.22       1.3607305    0.0088444768
      4541.76       1.3598568    0.0087177221
      4546.30       1.3604768    0.0087127675
      4550.85       1.3588139    0.0087123499
      4555.40       1.3520736    0.0088361634
      4559.95       1.3419732    0.0087119483
      4564.51       1.3441487    0.0087137141
      4569.08       1.3435050    0.0087197228
      4573.65       1.3455855    0.0087233654
      4578.22       1.3520771    0.0087269962
      4582.80       1.3432595    0.0087346875
      4587.38       1.3355096    0.0087463664
      4591.97       1.3316318    0.0087519942
      4596.56       1.3224516    0.0087610462
      4601.16       1.3189892    0.0087738840
      4605.76       1.3130191    0.0087904290
      4610.37       1.3116915    0.0087986280
      4614.98       1.3115115    0.0088123275
      4619.59       1.3058088    0.0088295583
      4624.21       1.3085837    0.0088502495
      4628.84       1.3068476    0.0087382437
      4633.47       1.3035398    0.0088791937
      4638.10       1.3031766    0.0089000777
