# starting wavelength =        3160.3961
# ending wavelength =        8577.2976
# O2 telluric scale =        0
# O2 telluric shift =        0
# H2O telluric scale =        0
# H2O telluric shift =        0
      3162.86       1.4275946     0.061854890
      3166.03       1.3898533     0.040303188
      3169.19       1.3765288     0.031576980
      3172.36       1.3852272     0.028030897
      3175.54       1.4046309     0.026368465
      3178.71       1.4487791     0.026239487
      3181.89       1.4651453     0.026124654
      3185.07       1.4733902     0.026007017
      3188.26       1.4888505     0.025943339
      3191.45       1.4805591     0.025922258
      3194.64       1.4572108     0.025999056
      3197.83       1.4439596     0.025993135
      3201.03       1.4286748     0.026057367
      3204.23       1.4302082     0.025284392
      3207.44       1.4391496     0.025041849
      3210.64       1.4161066     0.024833083
      3213.85       1.4069777     0.024561931
      3217.07       1.4049097     0.024322673
      3220.28       1.3949355     0.024031236
      3223.51       1.4037936     0.023727473
      3226.73       1.4008353     0.023487188
      3229.96       1.3844294     0.023312064
      3233.19       1.3854184     0.023168087
      3236.42       1.4054117     0.022943458
      3239.66       1.3936396     0.022827850
      3242.90       1.3828011     0.022647565
      3246.14       1.3688901     0.022550514
      3249.39       1.3526792     0.022422323
      3252.64       1.3597656     0.022203780
      3255.89       1.3567208     0.022028388
      3259.14       1.3411926     0.021995186
      3262.40       1.3520772     0.022054004
      3265.67       1.3724270     0.021979634
      3268.93       1.3732246     0.021913595
      3272.20       1.3690130     0.021776771
      3275.47       1.3760389     0.021710074
      3278.75       1.3700757     0.021720254
      3282.03       1.3831772     0.021563238
      3285.31       1.3775186     0.021394676
      3288.60       1.3818592     0.021170825
      3291.88       1.3741787     0.021069426
      3295.18       1.3734964     0.020894118
      3298.47       1.3692569     0.020728376
      3301.77       1.3657787     0.020537098
      3305.07       1.3748660     0.020384705
      3308.38       1.3679536     0.020291848
      3311.69       1.3809236     0.020088968
      3315.00       1.3802979     0.019934662
      3318.31       1.3817833     0.019744812
      3321.63       1.3733267     0.019672807
      3324.95       1.3720504     0.019544383
      3328.28       1.3798627     0.019400754
      3331.61       1.3901931     0.019316421
      3334.94       1.4039138     0.019320181
      3338.27       1.4093734     0.019410579
      3341.61       1.4202435     0.019355422
      3344.95       1.4264719     0.019275084
      3348.30       1.4308777     0.019101847
      3351.65       1.4280875     0.019601335
      3355.00       1.4302650     0.021218280
      3358.35       1.4410858     0.024532889
      3361.71       1.4441811     0.021179109
      3365.07       1.4448843     0.022422464
      3368.44       1.4367980     0.024479087
      3371.81       1.3978541     0.025154623
      3375.18       1.3913915     0.022968798
      3378.56       1.3960830     0.020704129
      3381.94       1.3910389     0.019604272
      3385.32       1.4119789     0.020350399
      3388.70       1.4251846     0.018554461
      3392.09       1.4299300     0.017498484
      3395.48       1.4397874     0.017406226
      3398.88       1.4578650     0.017769579
      3402.28       1.4701041     0.017695016
      3405.68       1.4838610     0.017635419
      3409.09       1.4814781     0.017534425
      3412.49       1.4649569     0.017068216
      3415.91       1.4623572     0.016908560
      3419.32       1.4511030     0.016787331
      3422.74       1.4411992     0.016686624
      3426.17       1.4545309     0.016623555
      3429.59       1.4638078     0.016594173
      3433.02       1.4847691     0.016510669
      3436.45       1.5006016     0.016429289
      3439.89       1.4970046     0.016401666
      3443.33       1.4963495     0.016407752
      3446.78       1.4925146     0.016300882
      3450.22       1.4987929     0.016240802
      3453.67       1.5143073     0.016181831
      3457.13       1.5212137     0.016201221
      3460.58       1.5167277     0.016175710
      3464.04       1.5292333     0.016072429
      3467.51       1.5364799     0.015945656
      3470.98       1.5352407     0.015869967
      3474.45       1.5273027     0.015422875
      3477.92       1.5221576     0.015316524
      3481.40       1.5233618     0.015557239
      3484.88       1.5263476     0.015453503
      3488.37       1.5167246     0.015412796
      3491.86       1.5211397     0.015342519
      3495.35       1.5260037     0.015317125
      3498.84       1.5395975     0.015247518
      3502.34       1.5487288     0.014849843
      3505.84       1.5424287     0.014818437
      3509.35       1.5424154     0.015127262
      3512.86       1.5401811     0.015073743
      3516.37       1.5503377     0.015061835
      3519.89       1.5586111     0.015090329
      3523.41       1.5674991     0.014799196
      3526.93       1.5782529     0.014818826
      3530.46       1.6002469     0.014799147
      3533.99       1.6086274     0.014763026
      3537.53       1.6127184     0.015072682
      3541.06       1.6266379     0.014984270
      3544.60       1.6417841     0.014605798
      3548.15       1.6512055     0.014579670
      3551.70       1.6619825     0.014554726
      3555.25       1.6618507     0.014530966
      3558.80       1.6648022     0.014867483
      3562.36       1.6647233     0.014862030
      3565.92       1.6494633     0.014468227
      3569.49       1.6437864     0.014340332
      3573.06       1.6435171     0.014230972
      3576.64       1.6405163     0.014146273
      3580.21       1.6348406     0.014079373
      3583.79       1.6332910     0.014062261
      3587.38       1.6315001     0.014012679
      3590.96       1.6352988     0.013959721
      3594.55       1.6238827     0.013930692
      3598.15       1.6084584     0.013860924
      3601.75       1.6059121     0.013821680
      3605.35       1.5959484     0.013736529
      3608.96       1.5814803     0.013676161
      3612.56       1.5682848     0.013636801
      3616.18       1.5692633     0.013581280
      3619.79       1.5707526     0.013594136
      3623.41       1.5674364     0.013519911
      3627.04       1.5624672     0.013445528
      3630.66       1.5627385     0.013376298
      3634.29       1.5776383     0.013322144
      3637.93       1.5823530     0.013376695
      3641.57       1.5789831     0.013349469
      3645.21       1.5750543     0.013330017
      3648.86       1.5655580     0.013301832
      3652.50       1.5453327     0.012996013
      3656.16       1.5309416     0.013264150
      3659.81       1.5195972     0.013187915
      3663.47       1.5222368     0.013154450
      3667.14       1.5335265     0.012905685
      3670.80       1.5570581     0.012956952
      3674.48       1.5809255     0.013285534
      3678.15       1.6015180     0.013271724
      3681.83       1.6195293     0.013012891
      3685.51       1.6251382     0.013046812
      3689.20       1.6413273     0.013299073
      3692.88       1.6513691     0.013260780
      3696.58       1.6569781     0.012966615
      3700.27       1.6661264     0.012945601
      3703.98       1.6638818     0.013231395
      3707.68       1.6769151     0.013291870
      3711.39       1.6771780     0.013113253
      3715.10       1.6811559     0.013242488
      3718.81       1.6778685     0.014400619
      3722.53       1.6752197     0.014846137
      3726.26       1.6911658     0.015088694
      3729.98       1.6690292     0.014905401
      3733.71       1.6485287     0.014322308
      3737.45       1.6301819     0.013151828
      3741.18       1.6256949     0.012726397
      3744.93       1.5981927     0.012720469
      3748.67       1.5693535     0.012419923
      3752.42       1.5337163     0.012339102
      3756.17       1.5123453     0.012272537
      3759.93       1.4996047     0.012223534
      3763.69       1.4737291     0.012151595
      3767.45       1.4518999     0.012124861
      3771.22       1.4595264     0.012071003
      3774.99       1.4698179     0.011991616
      3778.77       1.4694981     0.011932307
      3782.54       1.4633239     0.011861237
      3786.33       1.4510340     0.011840033
      3790.11       1.4521799     0.011837537
      3793.90       1.4530327     0.011820058
      3797.70       1.4401016     0.011564458
      3801.50       1.4330457     0.011773728
      3805.30       1.4441884     0.011693551
      3809.10       1.4418395     0.011345303
      3812.91       1.4390823     0.011552589
      3816.73       1.4268720     0.011557007
      3820.54       1.4241918     0.011269950
      3824.36       1.4270972     0.011525521
      3828.19       1.4253058     0.011572544
      3832.02       1.4184808     0.011374774
      3835.85       1.4189722     0.011663379
      3839.68       1.4401038     0.011618405
      3843.52       1.4518957     0.011359918
      3847.37       1.4746475     0.011605620
      3851.22       1.4774022     0.011749268
      3855.07       1.4929516     0.011493748
      3858.92       1.5035386     0.011991259
      3862.78       1.5087549     0.012268496
      3866.64       1.5179704     0.012216014
      3870.51       1.5241846     0.012571732
      3874.38       1.5561678     0.011986033
      3878.26       1.5765049     0.011799850
      3882.13       1.6066794     0.012016295
      3886.02       1.6112966     0.012032536
      3889.90       1.6359836     0.011900994
      3893.79       1.6534930     0.012096532
      3897.69       1.6713564     0.011721457
      3901.59       1.7004336     0.011633234
      3905.49       1.7247427     0.011763316
      3909.39       1.7568089     0.011724364
      3913.30       1.7797323     0.012008059
      3917.22       1.7917392     0.011820832
      3921.13       1.7861690     0.011795201
      3925.06       1.7944115     0.011888550
      3928.98       1.7973208     0.011898848
      3932.91       1.7971042     0.011947286
      3936.84       1.8110542     0.011958483
      3940.78       1.8254938     0.011931226
      3944.72       1.8498962     0.012403878
      3948.67       1.8690271     0.013181500
      3952.61       1.8799532     0.014931686
      3956.57       1.8604273     0.013143975
      3960.52       1.8581311     0.014720848
      3964.48       1.8372705     0.016396611
      3968.45       1.8376587     0.016776016
      3972.42       1.8248247     0.014658978
      3976.39       1.8201802     0.013931316
      3980.37       1.8131632     0.012912021
      3984.35       1.8104173     0.013707872
      3988.33       1.7992721     0.012375908
      3992.32       1.7802709     0.011482277
      3996.31       1.7473403     0.011622712
      4000.31       1.7304926     0.011320291
      4004.31       1.7026972     0.011480969
      4008.31       1.6714368     0.011197607
      4012.32       1.6489002     0.011348275
      4016.33       1.6410275     0.011292190
      4020.35       1.6312160     0.011031598
      4024.37       1.6234871     0.011204190
      4028.40       1.6071767     0.010936571
      4032.42       1.5972596     0.011107889
      4036.46       1.5862461     0.010832107
      4040.50       1.5668053     0.010993088
      4044.54       1.5611845     0.010743375
      4048.58       1.5632668     0.010968652
      4052.63       1.5796391     0.010756541
      4056.68       1.5897559     0.010757999
      4060.74       1.6062347     0.010764600
      4064.80       1.6164107     0.010764494
      4068.86       1.6195158     0.010777933
      4072.93       1.6135334     0.010748160
      4077.01       1.6003805     0.010737887
      4081.08       1.5969894     0.010779586
      4085.17       1.5937403     0.010719648
      4089.25       1.5875251     0.010783929
      4093.34       1.5902686     0.010994349
      4097.43       1.5944530     0.011113417
      4101.53       1.5891638     0.011142657
      4105.63       1.5910066     0.011053288
      4109.74       1.5916951     0.010816912
      4113.85       1.5806937     0.010687786
      4117.96       1.5760489     0.010577642
      4122.08       1.5601035     0.010555719
      4126.20       1.5387066     0.010461576
      4130.33       1.5297385     0.010428331
      4134.46       1.5097820     0.010376549
      4138.59       1.4973986     0.010353378
      4142.73       1.4945764     0.010330747
      4146.88       1.4937261     0.010290250
      4151.02       1.4829343     0.010258092
      4155.18       1.4780735     0.010034394
      4159.33       1.4801001     0.010204350
      4163.49       1.4690157    0.0099793787
      4167.65       1.4728109     0.010162101
      4171.82       1.4665606    0.0099476170
      4175.99       1.4751090     0.010096386
      4180.17       1.4824742    0.0098264878
      4184.35       1.4923363    0.0099713506
      4188.54       1.4826274    0.0097469280
      4192.72       1.4833476    0.0097081439
      4196.92       1.4920808    0.0098783491
      4201.11       1.4829218    0.0096867989
      4205.31       1.4730884    0.0098585787
      4209.52       1.4625646    0.0096415671
      4213.73       1.4583495    0.0098240310
      4217.94       1.4515365    0.0096150905
      4222.16       1.4481107    0.0095834724
      4226.38       1.4335442    0.0095593412
      4230.61       1.4242552    0.0095863707
      4234.84       1.4332729    0.0097759318
      4239.08       1.4299017    0.0096041490
      4243.32       1.4327820    0.0096825881
      4247.56       1.4323110    0.0096869383
      4251.81       1.4369542    0.0096995168
      4256.06       1.4369435    0.0096858804
      4260.32       1.4426046    0.0097061728
      4264.58       1.4433671    0.0097432166
      4268.84       1.4450538    0.0097164014
      4273.11       1.4547839    0.0097559675
      4277.38       1.4503048    0.0097597766
      4281.66       1.4537685    0.0097444045
      4285.94       1.4462658    0.0097626395
      4290.23       1.4432613    0.0097342459
      4294.52       1.4371868    0.0097536231
      4298.81       1.4451206    0.0095648106
      4303.11       1.4485914    0.0097779162
      4307.42       1.4588535    0.0098261019
      4311.72       1.4589900    0.0097992372
      4316.04       1.4618251    0.0098268685
      4320.35       1.4515142    0.0097292996
      4324.67       1.4360592    0.0098322716
      4329.00       1.4165796     0.010020901
      4333.33       1.3988587     0.010025481
      4337.66       1.3876850     0.010355591
      4342.00       1.3676852     0.010322284
      4346.34       1.3600942    0.0098847050
      4350.69       1.3419879    0.0098380772
      4355.04       1.3211955    0.0095204857
      4359.39       1.2876078    0.0095195509
      4363.75       1.2591402    0.0095554677
      4368.12       1.2293388    0.0092986695
      4372.48       1.2129342    0.0091508367
      4376.86       1.2031844    0.0092370015
      4381.23       1.1988564    0.0090713486
      4385.61       1.2045892    0.0090545761
      4390.00       1.2174183    0.0091827450
      4394.39       1.2279510    0.0090261825
      4398.79       1.2448027    0.0090306957
      4403.18       1.2557081    0.0092071480
      4407.59       1.2764480    0.0090753073
      4412.00       1.3003698    0.0091278703
      4416.41       1.3321317    0.0091393095
      4420.82       1.3586826    0.0091406489
      4425.25       1.3808711    0.0091951179
      4429.67       1.3994919    0.0092343209
      4434.10       1.4164265    0.0092508389
      4438.54       1.4317978    0.0092836349
      4442.97       1.4449260    0.0093529140
      4447.42       1.4654482    0.0092276740
      4451.86       1.4907187    0.0094692672
      4456.32       1.5294751    0.0095582592
      4460.77       1.5526120    0.0096528062
      4465.24       1.5703794    0.0095359847
      4469.70       1.5775910    0.0098041079
      4474.17       1.5893847    0.0098719211
      4478.65       1.6091770    0.0097092910
      4483.12       1.6250574    0.0099413352
      4487.61       1.6438907     0.010007488
      4492.09       1.6715116     0.010064912
      4496.59       1.6995819    0.0098957853
      4501.08       1.7153630     0.010137329
      4505.58       1.7260055     0.010147811
      4510.09       1.7262774    0.0099572539
      4514.60       1.7390228     0.010009334
      4519.12       1.7499679     0.010031651
      4523.63       1.7525222     0.010210534
      4528.16       1.7570787     0.010039682
      4532.69       1.7721152     0.010074676
      4537.22       1.7892635     0.010088667
      4541.76       1.8003695     0.010286116
      4546.30       1.8152371     0.010134836
      4550.85       1.8290036     0.010163530
      4555.40       1.8569556     0.010173551
      4559.95       1.8721138     0.010251730
      4564.51       1.8816406     0.010449250
      4569.08       1.8871170     0.010245481
      4573.65       1.8961250     0.010269848
      4578.22       1.8949255     0.010301810
      4582.80       1.9019665     0.010301994
      4587.38       1.9083283     0.010279397
      4591.97       1.9075254     0.010334771
      4596.56       1.9234112     0.010338471
      4601.16       1.9305227     0.010349327
      4605.76       1.9339030     0.010401443
      4610.37       1.9252657     0.010377607
      4614.98       1.9207390     0.010369613
      4619.59       1.9099455     0.010428728
      4624.21       1.9029792     0.010444315
      4628.84       1.8995348     0.010436180
      4633.47       1.8890559     0.010264801
      4638.10       1.8681919     0.010455154
      4642.74       1.8435929     0.010448851
      4647.38       1.8134008     0.010459408
      4652.03       1.7765480     0.010491647
      4656.68       1.7499877     0.010290213
      4661.34       1.7119925     0.010285887
      4666.00       1.6783470     0.010492303
      4670.67       1.6517005     0.010522633
      4675.33       1.6220969     0.010527126
      4680.01       1.5847922     0.010649128
      4684.69       1.5590271     0.010557561
      4689.38       1.5376373     0.010659175
      4694.07       1.5192949     0.010789283
      4698.76       1.5055217     0.010850360
      4703.46       1.4871612     0.011039878
      4708.16       1.4650077     0.011099771
      4712.87       1.4435738     0.010975235
      4717.58       1.4174059     0.011067442
      4722.30       1.3995969     0.011130800
      4727.03       1.3876175     0.011230635
      4731.75       1.3746900     0.011342798
      4736.48       1.3687702     0.011373400
      4741.22       1.3704265     0.011316519
      4745.96       1.3687763     0.011359974
      4750.71       1.3579680     0.011011296
      4755.46       1.3517902     0.010859687
      4760.22       1.3572688     0.010761154
      4764.97       1.3686836     0.010712345
      4769.74       1.3778198     0.010679093
      4774.51       1.3793802     0.010666741
      4779.29       1.3791490     0.010636212
      4784.07       1.3902578     0.010586334
      4788.85       1.3908773     0.010537379
      4793.64       1.4025579     0.010285689
      4798.43       1.4108834     0.010237621
      4803.23       1.4230140     0.010256443
      4808.03       1.4266084     0.010216596
      4812.84       1.4282869     0.010388285
      4817.66       1.4222963     0.010528333
      4822.48       1.4103279     0.011111499
      4827.30       1.4074953     0.012188044
      4832.12       1.4029916     0.013625704
      4836.96       1.3958624     0.015071828
      4841.79       1.3938291     0.015936773
      4846.63       1.3971453     0.015933901
      4851.48       1.3866678     0.016213112
      4856.33       1.3603296     0.015939409
