# starting wavelength =        3005.4645
# ending wavelength =        9271.4026
# O2 telluric scale =        0
# O2 telluric shift =        0
# H2O telluric scale =        0
# H2O telluric shift =        0
      3005.67       1.0677014      0.11218914
      3008.68       1.0773186     0.096707408
      3011.69       1.0852764     0.073094957
      3014.70       1.0964028     0.069474325
      3017.71       1.1131273     0.061154255
      3020.73       1.1223329     0.050003368
      3023.75       1.1231757     0.048406707
      3026.78       1.1307396     0.044251831
      3029.80       1.1478311     0.039032395
      3032.83       1.1497443     0.037995034
      3035.87       1.1578727     0.036082990
      3038.90       1.1689450     0.033482089
      3041.94       1.1771666     0.032674453
      3044.98       1.1860896     0.031753813
      3048.03       1.2128206     0.030256846
      3051.08       1.2202152     0.029956130
      3054.13       1.2057605     0.029076936
      3057.18       1.2224834     0.028074777
      3060.24       1.2292167     0.028022540
      3063.30       1.2415758     0.027169229
      3066.36       1.2516205     0.026702383
      3069.43       1.2546638     0.027004089
      3072.50       1.2603737     0.026169094
      3075.57       1.2608949     0.025699026
      3078.65       1.2633947     0.025984921
      3081.73       1.2713423     0.026250277
      3084.81       1.2744678     0.026264527
      3087.89       1.2806043     0.026795086
      3090.98       1.2742583     0.027010677
      3094.07       1.2751339     0.027254046
      3097.17       1.2826401     0.028255648
      3100.26       1.2773438     0.028394303
      3103.36       1.2690476     0.023994380
      3106.47       1.2659618     0.024067025
      3109.58       1.2682448     0.023577866
      3112.68       1.2694229     0.023610631
      3115.80       1.2706626     0.024137345
      3118.91       1.2758754     0.024272702
      3122.03       1.2709228     0.024494869
      3125.15       1.2717023     0.024996829
      3128.28       1.2684225     0.025078431
      3131.41       1.2567475     0.025022352
      3134.54       1.2562013     0.025488156
      3137.67       1.2636639     0.025095857
      3140.81       1.2754767     0.024445924
      3143.95       1.2712492     0.025242619
      3147.10       1.2838058     0.023184879
      3150.24       1.2873088     0.022149716
      3153.39       1.2887175     0.022055650
      3156.55       1.2794151     0.020527607
      3159.70       1.2774062     0.019541943
      3162.86       1.2735393     0.019258932
      3166.03       1.2697161     0.018274369
      3169.19       1.2674013     0.017287284
      3172.36       1.2678240     0.016923723
      3175.54       1.2653274     0.016259642
      3178.71       1.2657746     0.015883638
      3181.89       1.2653282     0.015290220
      3185.07       1.2618556     0.015243187
      3188.26       1.2584607     0.016631900
      3191.45       1.2562477     0.015926706
      3194.64       1.2558974     0.015578729
      3197.83       1.2656788     0.014718199
      3201.03       1.2646721     0.014465873
      3204.23       1.2645037     0.014173295
      3207.44       1.2577096     0.013753234
      3210.64       1.2574388     0.013714025
      3213.85       1.2566318     0.013453127
      3217.07       1.2617411     0.013505498
      3220.28       1.2651980     0.013770095
      3223.51       1.2674379     0.013892660
      3226.73       1.2661065     0.013734424
      3229.96       1.2613639     0.014075957
      3233.19       1.2692312     0.014286391
      3236.42       1.2679741     0.014540055
      3239.66       1.2673893     0.014548818
      3242.90       1.2713125     0.014798211
      3246.14       1.2716407     0.015067377
      3249.39       1.2703389     0.015350452
      3252.64       1.2689767     0.015341216
      3255.89       1.2647312     0.015607781
      3259.14       1.2570226     0.015911868
      3262.40       1.2537624     0.016447673
      3265.67       1.2485631     0.016224026
      3268.93       1.2398555     0.016541695
      3272.20       1.2368729     0.017079645
      3275.47       1.2301809     0.017438970
      3278.75       1.2279129     0.017174625
      3282.03       1.2242032     0.017714810
      3285.31       1.2189614     0.018064266
      3288.60       1.2161263     0.017811775
      3291.88       1.2150795     0.018126866
      3295.18       1.2146028     0.018693437
      3298.47       1.2114523     0.019048268
      3301.77       1.2048442     0.018747969
      3305.07       1.1899316     0.019318830
      3308.38       1.1817710     0.019657255
      3311.69       1.1897220     0.020011301
      3315.00       1.1978269     0.020620350
      3318.31       1.1985258     0.020261280
      3321.63       1.1926088     0.020582394
      3324.95       1.1946315     0.020898669
      3328.28       1.2003777     0.021500691
      3331.61       1.2134566     0.021074707
      3334.94       1.2078346     0.021308367
      3338.27       1.2197906     0.021930317
      3341.61       1.2219617     0.022075192
      3344.95       1.2368992     0.021545435
      3348.30       1.2431414     0.022167162
      3351.65       1.2632142     0.022187155
      3355.00       1.2641505     0.022170916
      3358.35       1.2642384     0.021562713
      3361.71       1.2668654     0.022100581
      3365.07       1.2604735     0.021986914
      3368.44       1.2570794     0.021863401
      3371.81       1.2557990     0.021878207
      3375.18       1.2525026     0.021706722
      3378.56       1.2407500     0.021544429
      3381.94       1.2265871     0.021397118
      3385.32       1.2192194     0.021836255
      3388.70       1.2166771     0.021224581
      3392.09       1.2107555     0.021053437
      3395.48       1.2039863     0.021453814
      3398.88       1.1932657     0.021310592
      3402.28       1.1974334     0.020705086
      3405.68       1.1970769     0.020529377
      3409.09       1.1953298     0.020918548
      3412.49       1.1983461     0.020774856
      3415.91       1.2126906     0.020649245
      3419.32       1.2194828     0.020544158
      3422.74       1.2317596     0.020382074
      3426.17       1.2356138     0.020236942
      3429.59       1.2493044     0.020108993
      3433.02       1.2624321     0.020007734
      3436.45       1.2975132     0.019844336
      3439.89       1.3208485     0.019699446
      3443.33       1.3346296     0.020133160
      3446.78       1.3559638     0.019953491
      3450.22       1.3668655     0.019318423
      3453.67       1.3827032     0.019175451
      3457.13       1.3979715     0.019605247
      3460.58       1.4066427     0.019429425
      3464.04       1.4224618     0.019278747
      3467.51       1.4280383     0.018690326
      3470.98       1.4420252     0.019122457
      3474.45       1.4580785     0.018979539
      3477.92       1.4653972     0.018870874
      3481.40       1.4677981     0.019300134
      3484.88       1.4725503     0.018774567
      3488.37       1.4873454     0.018683445
      3491.86       1.4911166     0.018625125
      3495.35       1.4969775     0.019077337
      3498.84       1.5142146     0.019078129
      3502.34       1.5238590     0.018535351
      3505.84       1.5279063     0.018504660
      3509.35       1.5346588     0.018962473
      3512.86       1.5483247     0.018968897
      3516.37       1.5679691     0.018994083
      3519.89       1.5806495     0.018423688
      3523.41       1.5940076     0.018872459
      3526.93       1.6058372     0.018878924
      3530.46       1.6032135     0.018902688
      3533.99       1.6197852     0.018944556
      3537.53       1.6291731     0.018801921
      3541.06       1.6394156     0.018800351
      3544.60       1.6526528     0.018815347
      3548.15       1.6570425     0.018847374
      3551.70       1.6633221     0.019333047
      3555.25       1.6596053     0.018724413
      3558.80       1.6564809     0.018730114
      3562.36       1.6564367     0.019304319
      3565.92       1.6648319     0.019267921
      3569.49       1.6622759     0.019248391
      3573.06       1.6529158     0.019245533
      3576.64       1.6509532     0.019255883
      3580.21       1.6301876     0.019209243
      3583.79       1.6237415     0.019179514
      3587.38       1.6129415     0.019166325
      3590.96       1.6077406     0.019705409
      3594.55       1.6137755     0.019160787
      3598.15       1.6191354     0.019120638
      3601.75       1.6110713     0.019097121
      3605.35       1.6092933     0.019617999
      3608.96       1.6323939     0.019633958
      3612.56       1.6531513     0.019672680
      3616.18       1.6696209     0.019050739
      3619.79       1.6897288     0.019039464
      3623.41       1.7020230     0.019567932
      3627.04       1.7083165     0.019598202
      3630.66       1.7225196     0.019650130
      3634.29       1.7157662     0.019724249
      3637.93       1.7174749     0.019540148
      3641.57       1.7017702     0.019557967
      3645.21       1.6853159     0.019593345
      3648.86       1.6782770     0.019648553
      3652.50       1.6800510     0.019723418
      3656.16       1.6750912     0.019538850
      3659.81       1.6656404     0.019557293
      3663.47       1.6639020     0.019593027
      3667.14       1.6598043     0.019646408
      3670.80       1.6455938     0.019718449
      3674.48       1.6339015     0.019540838
      3678.15       1.6279503     0.019556833
      3681.83       1.6197002     0.019589318
      3685.51       1.6180119     0.020298708
      3689.20       1.6129245     0.020893221
      3692.88       1.6027260     0.021185845
      3696.58       1.5825523     0.023138355
      3700.27       1.5630645     0.023957626
      3703.98       1.5343369     0.028454734
      3707.68       1.5273018     0.022648212
      3711.39       1.5215759     0.022447566
      3715.10       1.5208663     0.026420914
      3718.81       1.5244850     0.027935015
      3722.53       1.5485626     0.029699441
      3726.26       1.5509316     0.031030316
      3729.98       1.5573013     0.030753717
      3733.71       1.5776985     0.030448739
      3737.45       1.5946625     0.028905661
      3741.18       1.6104581     0.026992103
      3744.93       1.6103861     0.025326217
      3748.67       1.6071338     0.023784216
      3752.42       1.6094541     0.023229361
      3756.17       1.6135856     0.029405932
      3759.93       1.6181321     0.025409069
      3763.69       1.6375492     0.022086136
      3767.45       1.6483909     0.021162311
      3771.22       1.6469398     0.019704849
      3774.99       1.6538804     0.018946169
      3778.77       1.6525449     0.018155414
      3782.54       1.6553274     0.018577435
      3786.33       1.6638322     0.018425892
      3790.11       1.6740717     0.017810547
      3793.90       1.6850960     0.017618888
      3797.70       1.6852186     0.017433778
      3801.50       1.6964532     0.017255673
      3805.30       1.7068414     0.017650180
      3809.10       1.7182438     0.017488606
      3812.91       1.7174893     0.016897734
      3816.73       1.7247027     0.016701800
      3820.54       1.7304741     0.016514254
      3824.36       1.7450741     0.016334723
      3828.19       1.7597158     0.016162850
      3832.02       1.7734589     0.016535683
      3835.85       1.7747621     0.015981014
      3839.68       1.7715961     0.015784144
      3843.52       1.7811276     0.015594842
      3847.37       1.7949265     0.015412678
      3851.22       1.7943188     0.015237306
      3855.07       1.7955784     0.015074280
      3858.92       1.7973216     0.015073322
      3862.78       1.7970099     0.014886109
      3866.64       1.7938537     0.014706558
      3870.51       1.7927577     0.014537359
      3874.38       1.7849509     0.014385348
      3878.26       1.7824075     0.014258795
      3882.13       1.7792570     0.013774419
      3886.02       1.7736195     0.014151279
      3889.90       1.7779943     0.014060041
      3893.79       1.7837407     0.014009477
      3897.69       1.7905170     0.013999064
      3901.59       1.7905344     0.014025395
      3905.49       1.7928370     0.014082595
      3909.39       1.7984296     0.013701035
      3913.30       1.8073393     0.014147112
      3917.22       1.8261722     0.014210015
      3921.13       1.8416186     0.014281860
      3925.06       1.8554621     0.014359659
      3928.98       1.8578529     0.014447794
      3932.91       1.8613480     0.014546034
      3936.84       1.8709746     0.014143496
      3940.78       1.8806995     0.014248087
      3944.72       1.8860910     0.014717115
      3948.67       1.8855276     0.014798479
      3952.61       1.8931225     0.014884687
      3956.57       1.8894616     0.014975721
      3960.52       1.8870696     0.015071584
      3964.48       1.8822589     0.014650196
      3968.45       1.8796622     0.014751836
      3972.42       1.8706531     0.014858268
      3976.39       1.8602613     0.015333261
      3980.37       1.8436179     0.015416201
      3984.35       1.8375464     0.015503679
      3988.33       1.8258831     0.015595681
      3992.32       1.8288578     0.015152365
      3996.31       1.8372297     0.015245875
      4000.31       1.8405731     0.015342773
      4004.31       1.8391674     0.015441060
      4008.31       1.8523347     0.015536419
      4012.32       1.8662516     0.015995398
      4016.33       1.8776440     0.016052579
      4020.35       1.8910730     0.016094722
      4024.37       1.8889911     0.015592252
      4028.40       1.8986810     0.015601582
      4032.42       1.9032918     0.015590401
      4036.46       1.9046125     0.015560163
      4040.50       1.8951221     0.015514163
      4044.54       1.8868317     0.015457003
      4048.58       1.8797794     0.015836693
      4052.63       1.8604829     0.015738186
      4056.68       1.8578779     0.015187690
      4060.74       1.8528859     0.015097656
      4064.80       1.8384773     0.015009876
      4068.86       1.8375446     0.014921092
      4072.93       1.8323264     0.014831819
      4077.01       1.8226038     0.014745214
      4081.08       1.8231387     0.014661321
      4085.17       1.8207070     0.014579980
      4089.25       1.8138218     0.014897303
      4093.34       1.8061068     0.014375806
      4097.43       1.7941754     0.014276080
      4101.53       1.7899443     0.014178640
      4105.63       1.7911197     0.014083455
      4109.74       1.7847684     0.013990441
      4113.85       1.7868049     0.013899606
      4117.96       1.7816992     0.013810759
      4122.08       1.7816856     0.013723912
      4126.20       1.7771487     0.013642663
      4130.33       1.7845720     0.013183953
      4134.46       1.7922244     0.013092818
      4138.59       1.7929459     0.013359616
      4142.73       1.8022742     0.013270665
      4146.88       1.8065025     0.013192021
      4151.02       1.8049122     0.013129775
      4155.18       1.8029574     0.013089696
      4159.33       1.8005552     0.013076358
      4163.49       1.7980620     0.013092268
      4167.65       1.7876938     0.013138038
      4171.82       1.7777153     0.012783648
      4175.99       1.7660712     0.012843730
      4180.17       1.7562936     0.012926020
      4184.35       1.7350415     0.013025820
      4188.54       1.7169881     0.013137708
      4192.72       1.7085352     0.013527193
      4196.92       1.6905297     0.013650219
      4201.11       1.6729604     0.013775658
      4205.31       1.6567361     0.013909046
      4209.52       1.6537427     0.014049556
      4213.73       1.6452581     0.014191690
      4217.94       1.6379658     0.013863509
      4222.16       1.6367174     0.013986416
      4226.38       1.6270639     0.014110424
      4230.61       1.6228573     0.014235508
      4234.84       1.6222664     0.014361664
      4239.08       1.6110766     0.014488889
      4243.32       1.6108609     0.014617146
      4247.56       1.6125106     0.014746438
      4251.81       1.6103241     0.014876783
      4256.06       1.6089583     0.015317208
      4260.32       1.5998793     0.015454410
      4264.58       1.5994885     0.015592941
      4268.84       1.5953198     0.015732787
      4273.11       1.5981818     0.015390491
      4277.38       1.6067927     0.015513571
      4281.66       1.6115126     0.015638742
      4285.94       1.6136346     0.015766519
      4290.23       1.6245089     0.015897460
      4294.52       1.6295025     0.016031873
      4298.81       1.6317612     0.016169953
      4303.11       1.6386813     0.016311678
      4307.42       1.6426544     0.016456790
      4311.72       1.6393681     0.016604852
      4316.04       1.6292254     0.016755276
      4320.35       1.6180070     0.016907433
      4324.67       1.6225677     0.017060681
      4329.00       1.6227169     0.017214645
      4333.33       1.6175387     0.017369423
      4337.66       1.6181983     0.017525616
      4342.00       1.6259301     0.017111596
      4346.34       1.6304694     0.017264446
      4350.69       1.6278237     0.017822963
      4355.04       1.6473799     0.017969144
      4359.39       1.6654628     0.018115935
      4363.75       1.6826715     0.018263600
      4368.12       1.6910330     0.018411031
      4372.48       1.7147049     0.018559335
      4376.86       1.7228566     0.018708105
      4381.23       1.7362258     0.018857295
      4385.61       1.7531891     0.019006919
      4390.00       1.7606323     0.019156946
      4394.39       1.7564873     0.019307340
      4398.79       1.7677894     0.019453762
      4403.18       1.7702900     0.019595424
      4407.59       1.7777205     0.019736401
      4412.00       1.7743539     0.019875038
      4416.41       1.7886979     0.020005568
      4420.82       1.8014602     0.020119841
      4425.25       1.8192353     0.020209072
      4429.67       1.8287520     0.020265188
      4434.10       1.8419540     0.019688989
      4438.54       1.8526627     0.019679908
      4442.97       1.8629258     0.019631280
      4447.42       1.8645745     0.019545188
      4451.86       1.8642031     0.019426263
      4456.32       1.8704676     0.019280878
      4460.77       1.8596575     0.019116605
      4465.24       1.8560534     0.018940927
      4469.70       1.8499031     0.018760089
      4474.17       1.8393154     0.018577778
      4478.65       1.8285428     0.018394044
      4483.12       1.8222276     0.018204029
      4487.61       1.8080726     0.018009114
      4492.09       1.8032812     0.017814000
      4496.59       1.7940736     0.017618753
      4501.08       1.7917364     0.017423436
      4505.58       1.7907815     0.017227917
      4510.09       1.7963534     0.017032230
      4514.60       1.8026899     0.016836393
      4519.12       1.8089386     0.016640402
      4523.63       1.8119482     0.016444319
      4528.16       1.8138192     0.016248005
      4532.69       1.8155721     0.016054963
      4537.22       1.8180053     0.015865723
      4541.76       1.8191407     0.015676905
      4546.30       1.8134866     0.015489625
      4550.85       1.8027868     0.015307397
      4555.40       1.7944463     0.015134731
      4559.95       1.7765043     0.014976269
      4564.51       1.7578522     0.014835709
      4569.08       1.7430839     0.014715902
      4573.65       1.7231360     0.014618303
      4578.22       1.7009088     0.014542765
      4582.80       1.6786905     0.014487961
      4587.38       1.6600151     0.014451372
      4591.97       1.6488739     0.014429349
      4596.56       1.6437784     0.014417818
      4601.16       1.6366320     0.014412621
      4605.76       1.6255566     0.014410141
      4610.37       1.6254981     0.014408268
      4614.98       1.6254494     0.014407039
