# starting wavelength =        3900.6600
# ending wavelength =        9726.8300
# O2 telluric scale =        0
# O2 telluric shift =        0
# H2O telluric scale =        0
# H2O telluric shift =        0
      3901.59      0.58853779     0.076565224
      3905.49      0.61831802     0.064526454
      3909.39      0.62032631     0.055072412
      3913.30      0.63043878     0.047679132
      3917.22      0.64973781     0.041880086
      3921.13      0.66774124     0.037363067
      3925.06      0.68027640     0.033830720
      3928.98      0.69627358     0.030460615
      3932.91      0.69568959     0.028474140
      3936.84      0.68964496     0.026914461
      3940.78      0.72593610     0.025682321
      3944.72      0.77256822     0.024688908
      3948.67      0.78949548     0.023878558
      3952.61      0.77261561     0.023203293
      3956.57      0.74788484     0.022632299
      3960.52      0.71976766     0.022140340
      3964.48      0.70447591     0.021875831
      3968.45      0.69597236     0.021488254
      3972.42      0.70411800     0.021143435
      3976.39      0.69732357     0.020965459
      3980.37      0.68795294     0.020921636
      3984.35      0.68074822     0.020877927
      3988.33      0.67250578     0.020966975
      3992.32      0.64863830     0.020923077
      3996.31      0.63445574     0.020878929
      4000.31      0.63035988     0.020834888
      4004.31      0.61971614     0.020942045
      4008.31      0.60372509     0.020898224
      4012.32      0.57665979     0.020854536
      4016.33      0.55425781     0.020810972
      4020.35      0.53350161     0.020767536
      4024.37      0.52987098     0.020856800
      4028.40      0.51944329     0.020812750
      4032.42      0.50201289     0.020768758
      4036.46      0.49585909     0.020724842
      4040.50      0.49651930     0.020680999
      4044.54      0.50621345     0.020637232
      4048.58      0.51133297     0.020593557
      4052.63      0.52716796     0.020687512
      4056.68      0.53206165     0.020797629
      4060.74      0.53285587     0.020753564
      4064.80      0.53200849     0.020709583
      4068.86      0.53217523     0.020665696
      4072.93      0.53788924     0.020621920
      4077.01      0.54556169     0.020578261
      4081.08      0.58474835     0.020676594
      4085.17      0.58354194     0.020632877
      4089.25      0.55289145     0.020589304
      4093.34      0.52559836     0.020545889
      4097.43      0.51595599     0.020502641
      4101.53      0.51519916     0.020459579
      4105.63      0.54099017     0.020556946
      4109.74      0.55625155     0.020512303
      4113.85      0.55462726     0.020467947
      4117.96      0.55077093     0.020423779
      4122.08      0.54705584     0.020379842
      4126.20      0.53879202     0.020481392
      4130.33      0.54338051     0.020437657
      4134.46      0.54505828     0.020393989
      4138.59      0.54841031     0.020350562
      4142.73      0.54822993     0.020307379
      4146.88      0.55070060     0.020574310
      4151.02      0.56747294     0.020531018
      4155.18      0.58765791     0.020487832
      4159.33      0.60732064     0.020445035
      4163.49      0.62623440     0.020402637
      4167.65      0.65081337     0.020503494
      4171.82      0.65704345     0.020458997
      4175.99      0.66001396     0.020414850
      4180.17      0.65601791     0.020371079
      4184.35      0.65374502     0.020482802
      4188.54      0.64892276     0.020439469
      4192.72      0.64083531     0.020396540
      4196.92      0.62650439     0.020354035
      4201.11      0.62399157     0.020311963
      4205.31      0.62791815     0.020418035
      4209.52      0.61879458     0.020373242
      4213.73      0.61425719     0.020328894
      4217.94      0.61365630     0.020285020
      4222.16      0.61134240     0.020401672
      4226.38      0.61304649     0.020358441
      4230.61      0.62289966     0.020315762
      4234.84      0.62299288     0.020273662
      4239.08      0.61384605     0.020384348
      4243.32      0.60951835     0.020339121
      4247.56      0.61364963     0.020294536
      4251.81      0.61714670     0.020250631
      4256.06      0.62532272     0.020373167
      4260.32      0.63604649     0.020330375
      4264.58      0.63457278     0.020288415
      4268.84      0.63824881     0.020405394
      4273.11      0.67174649     0.020360163
      4277.38      0.69826644     0.020315462
      4281.66      0.69869090     0.020271604
      4285.94      0.69820457     0.020400696
      4290.23      0.69278994     0.020172917
      4294.52      0.68776628     0.020126580
      4298.81      0.66694494     0.020252294
      4303.11      0.64668565     0.020207125
      4307.42      0.62966914     0.020163072
      4311.72      0.61794385     0.020120143
      4316.04      0.61826060     0.020248478
      4320.35      0.61230567     0.020201569
      4324.67      0.61296433     0.020155794
      4329.00      0.61071102     0.020289230
      4333.33      0.59556348     0.020245424
      4337.66      0.58869113     0.020202872
      4342.00      0.58442243     0.020336330
      4346.34      0.56848441     0.020289133
      4350.69      0.55635738     0.020243300
      4355.04      0.55218216     0.020385103
      4359.39      0.56685339     0.020341683
      4363.75      0.58626214     0.020299796
      4368.12      0.59571738     0.020435798
      4372.48      0.60653045     0.020388809
      4376.86      0.63430121     0.020343527
      4381.23      0.65443526     0.020294725
      4385.61      0.65113848     0.020244707
      4390.00      0.66751336     0.020196544
      4394.39      0.66871792     0.020343870
      4398.79      0.66449821     0.020299143
      4403.18      0.65390097     0.020256547
      4407.59      0.64949124     0.020404290
      4412.00      0.64730241     0.020355859
      4416.41      0.64605564     0.020513702
      4420.82      0.64267550     0.020469287
      4425.25      0.63875007     0.020427293
      4429.67      0.63138332     0.020579936
      4434.10      0.62457368     0.020531872
      4438.54      0.62526297     0.020274082
      4442.97      0.61894611     0.020436640
      4447.42      0.62141510     0.020385391
      4451.86      0.63624389     0.020550192
      4456.32      0.64571771     0.020504244
      4460.77      0.64076822     0.020461298
      4465.24      0.63307129     0.020626404
      4469.70      0.64460276     0.020576413
      4474.17      0.67737782     0.020755756
      4478.65      0.70431483     0.020712304
      4483.12      0.72113686     0.020429625
      4487.61      0.72807332     0.020605088
      4492.09      0.73861823     0.020558785
      4496.59      0.74255121     0.020516269
      4501.08      0.74536235     0.020234216
      4505.58      0.76014952     0.020407974
      4510.09      0.77192574     0.020362795
      4514.60      0.78666456     0.020089976
      4519.12      0.79416568     0.020039017
      4523.63      0.80063872     0.020212298
      4528.16      0.81753587     0.020168781
      4532.69      0.82863932     0.019894300
      4537.22      0.83179671     0.019845358
      4541.76      0.83573824     0.020018772
      4546.30      0.83367121     0.019751559
      4550.85      0.83151639     0.019701048
      4555.40      0.83658634     0.019655086
      4559.95      0.83418355     0.019610656
      4564.51      0.82173559     0.019558287
      4569.08      0.80975835     0.019510465
      4573.65      0.79627431     0.019257685
      4578.22      0.78361570     0.019416714
      4582.80      0.77827235     0.019367775
      4587.38      0.77749463     0.019115280
      4591.97      0.78466369     0.019275452
      4596.56      0.79466802     0.019225592
      4601.16      0.80157232     0.018974233
      4605.76      0.81395622     0.019134767
      4610.37      0.82955006     0.019084234
      4614.98      0.84438847     0.018833887
      4619.59      0.85072921     0.018794306
      4624.21      0.85402241     0.018944194
      4628.84      0.84870880     0.018695367
      4633.47      0.83833143     0.018655939
      4638.10      0.82858563     0.018805199
      4642.74      0.81814032     0.018558172
      4647.38      0.80202058     0.018519074
      4652.03      0.78747261     0.018666343
      4656.68      0.77558962     0.018421029
      4661.34      0.76308629     0.018382463
      4666.00      0.76555173     0.018328004
      4670.67      0.76707217     0.018284864
      4675.33      0.77283289     0.018247294
      4680.01      0.78689494     0.018191290
      4684.69      0.80485705     0.018149584
      4689.38      0.81366797     0.018113722
      4694.07      0.82483154     0.018056948
      4698.76      0.83600039     0.018016886
      4703.46      0.84291227     0.017780151
      4708.16      0.85035291     0.017923259
      4712.87      0.84153817     0.017885223
      4717.58      0.82965067     0.017647468
      4722.30      0.82492564     0.017791140
      4727.03      0.82054475     0.017560725
      4731.75      0.81240575     0.017515856
      4736.48      0.80003393     0.017660814
      4741.22      0.77802123     0.017428544
      4745.96      0.76617029     0.017385983
      4750.71      0.75841539     0.017342937
      4755.46      0.75935801     0.017297456
      4760.22      0.75441953     0.017439878
      4764.97      0.75831634     0.017211543
      4769.74      0.76066701     0.017169487
      4774.51      0.75674193     0.017127667
      4779.29      0.75875775     0.017082636
      4784.07      0.75927006     0.016867519
      4788.85      0.75998126     0.016997303
      4793.64      0.75667961     0.016956034
      4798.43      0.76085378     0.016913253
      4803.23      0.75952697     0.016869247
      4808.03      0.75421060     0.016657782
      4812.84      0.76134268     0.016783840
      4817.66      0.76551391     0.016571104
      4822.48      0.76709784     0.016699725
      4827.30      0.78748574     0.016485618
      4832.12      0.79262839     0.016451782
      4836.96      0.81108922     0.016402136
      4841.79      0.82909334     0.016366435
      4846.63      0.84456019     0.016490262
      4851.48      0.85462419     0.016281777
      4856.33      0.85796912     0.016251481
      4861.19      0.86920147     0.016198159
      4866.05      0.86668736     0.016166433
      4870.92      0.86245940     0.016115443
      4875.79      0.85599114     0.016082343
      4880.66      0.83657300     0.016033510
      4885.55      0.82815590     0.015998922
      4890.43      0.82215671     0.015793185
      4895.32      0.80500612     0.015916930
      4900.22      0.78614061     0.015713270
      4905.12      0.78363045     0.015835030
      4910.02      0.78946546     0.015633993
      4914.94      0.79636174     0.015754565
      4919.85      0.81835333     0.015555438
      4924.77      0.82746827     0.015674473
      4929.70      0.84978741     0.015477191
      4934.62      0.87115738     0.015595200
      4939.56      0.89110431     0.015399240
      4944.50      0.90772227     0.015361408
      4949.44      0.92012510     0.015321379
      4954.39      0.93188267     0.015283445
      4959.35      0.93472824     0.015243744
      4964.31      0.93745740     0.015205808
      4969.27      0.93726799     0.015166483
      4974.24      0.93077841     0.015128893
      4979.22      0.92537624     0.015089806
      4984.20      0.91534537     0.015052388
      4989.18      0.89753455     0.015013452
      4994.17      0.88884118     0.014827623
      4999.16      0.88001924     0.014937540
      5004.16      0.86266682     0.014753145
      5009.17      0.84912995     0.014862074
      5014.18      0.83687794     0.014679160
      5019.19      0.81844207     0.014786699
      5024.21      0.80648670     0.014605779
      5029.23      0.79706446     0.014712161
      5034.26      0.79389058     0.014533064
      5039.30      0.78977439     0.014637614
      5044.34      0.78271996     0.014460595
      5049.39      0.78512358     0.014418870
      5054.43      0.77993373     0.014389652
      5059.49      0.78055499     0.014346939
      5064.55      0.78749534     0.014319429
      5069.61      0.79434071     0.014276000
      5074.68      0.79882345     0.014250363
      5079.76      0.81155016     0.014205505
      5084.84      0.82434265     0.014031175
      5089.92      0.83647607     0.014135960
      5095.01      0.84066373     0.014095563
      5100.11      0.84523072     0.014067049
      5105.21      0.85377961     0.014025458
      5110.31      0.86097726     0.013855243
      5115.42      0.86924207     0.013956133
      5120.54      0.88429758     0.013785297
      5125.66      0.89108399     0.013888467
      5130.79      0.88770006     0.013716770
      5135.92      0.88455059     0.013682987
      5141.05      0.87766553     0.013649587
      5146.20      0.87141598     0.013613696
      5151.34      0.86012231     0.013714652
      5156.49      0.85791231     0.013545976
      5161.65      0.85446377     0.013512832
      5166.81      0.85205020     0.013479480
      5171.98      0.84923593     0.013444632
      5177.15      0.85267860     0.013285756
      5182.33      0.85218496     0.013377522
      5187.51      0.85200258     0.013344945
      5192.70      0.85392321     0.013184860
      5197.89      0.85835635     0.013277867
      5203.09      0.86877022     0.013122369
      5208.29      0.88316421     0.013212796
      5213.50      0.90060959     0.013179955
      5218.72      0.90682308     0.013023594
      5223.93      0.90419361     0.013114664
      5229.16      0.89881547     0.012963363
      5234.39      0.89800178     0.012926201
      5239.62      0.89219063     0.013017545
      5244.86      0.89705979     0.012865965
      5250.11      0.90757476     0.012829968
      5255.36      0.91284138     0.012807892
      5260.61      0.91924212     0.012769969
      5265.87      0.92453750     0.012735062
      5271.14      0.93061421     0.012712586
      5276.41      0.94464067     0.012675848
      5281.69      0.95509836     0.012641800
      5286.97      0.96189591     0.012494554
      5292.26      0.96386503     0.012583037
      5297.55      0.96260732     0.012549641
      5302.85      0.96559655     0.012403640
      5308.15      0.97174740     0.012491547
      5313.46      0.98200458     0.012343715
      5318.77      0.98797242     0.012313594
      5324.09      0.98820157     0.012401369
      5329.42      0.99027634     0.012254396
      5334.75      0.99594255     0.012224190
      5340.08       1.0006365     0.012196415
      5345.42       1.0075941     0.012166475
      5350.77       1.0115358     0.012136416
      5356.12       1.0082425     0.012108550
      5361.48       1.0068194     0.012080199
      5366.83       1.0079101     0.012049931
      5372.20       1.0182418     0.012021673
      5377.58       1.0253914     0.011884337
      5382.95       1.0195493     0.011964464
      5388.34       1.0095461     0.011935709
      5393.72      0.99542333     0.011801471
      5399.12      0.98676593     0.011770639
      5404.52      0.98435961     0.011850936
      5409.92      0.98423427     0.011823444
      5415.33      0.98172364     0.011688974
      5420.75      0.98495002     0.011659287
      5426.17      0.98335433     0.011739966
      5431.60      0.98079994     0.011609743
      5437.03      0.97869284     0.011579506
      5442.47      0.97614067     0.011551020
      5447.91      0.97178187     0.011631409
      5453.36      0.97157349     0.011501755
      5458.81      0.96389589     0.011472443
      5464.27      0.95654484     0.011444569
      5469.73      0.96469767     0.011426285
      5475.20      0.97618886     0.011396014
      5480.68      0.97609820     0.011367441
      5486.16      0.97314062     0.011340065
      5491.65      0.98276415     0.011213535
      5497.14      0.97843125     0.011293615
      5502.64      0.97377064     0.011265353
      5508.14      0.96847896     0.011238469
      5513.65      0.96680774     0.011112799
      5519.16      0.96407786     0.011088201
      5524.68      0.96792614     0.011165691
      5530.20      0.96886224     0.011138634
      5535.73      0.96524106     0.011013817
      5541.27      0.96443532     0.010989086
      5546.81      0.96201041     0.010965296
      5552.36      0.95797134     0.010942451
      5557.91      0.94989431     0.010917187
      5563.47      0.93259114     0.010892386
      5569.04      0.93022448     0.010868605
      5574.60      0.94293762     0.010845804
      5580.18      0.94919976     0.010727872
      5585.76      0.95168240     0.010703166
      5591.35      0.95434508     0.010775001
      5596.94      0.96583224     0.010751563
      5602.53      0.95933722     0.010729048
      5608.14      0.95855619     0.010613782
      5613.75      0.95368189     0.010589583
      5619.36      0.94395875     0.010566093
      5624.98      0.93550108     0.010637656
      5630.60      0.92756529     0.010615316
      5636.23      0.90774939     0.010504128
      5641.87      0.89496078     0.010480334
      5647.51      0.87743211     0.010457294
      5653.16      0.86477928     0.010434660
      5658.82      0.85579072     0.010412744
      5664.47      0.83106582     0.010391189
      5670.14      0.81758889     0.010375797
      5675.81      0.81430376     0.010352814
      5681.48      0.82048118     0.010330181
      5687.17      0.82806340     0.010308217
      5692.85      0.84102573     0.010286566
      5698.55      0.85105927     0.010265526
      5704.25      0.86025084     0.010156536
      5709.95      0.87191854     0.010136548
      5715.66      0.87455127     0.010117000
      5721.38      0.87103472     0.010097746
      5727.10      0.87074454     0.010166806
      5732.83      0.87318259     0.010146190
      5738.56      0.87283651     0.010038614
      5744.30      0.87308274     0.010018785
      5750.04      0.87880228    0.0099994863
      5755.79      0.87451298    0.0099803143
      5761.55      0.88186043    0.0099614124
      5767.31      0.88308742    0.0099429489
      5773.08      0.88032716    0.0099251237
      5778.85      0.88716489    0.0099081959
      5784.63      0.89873287     0.010081422
      5790.41      0.91797829     0.010437867
      5796.21      0.93484681     0.010826203
      5802.00      0.95675476     0.011507652
      5807.81      0.97227413     0.012248154
      5813.61      0.99282666     0.010845699
      5819.43       1.0118611     0.010957377
      5825.25       1.0225218     0.011437741
      5831.07       1.0362901     0.012074050
      5836.90       1.0471999     0.012784416
      5842.74       1.0465745     0.013236914
      5848.58       1.0520099     0.013721221
      5854.43       1.0406811     0.013757125
      5860.29       1.0068003     0.013307634
      5866.15      0.99419172     0.012665923
      5872.01      0.99268797     0.011966760
      5877.89      0.97905320     0.011320305
      5883.76      0.96507452     0.010800360
      5889.65      0.95780255     0.010527257
      5895.54      0.94550613     0.012400987
      5901.43      0.94606764     0.011221321
      5907.34      0.95831277     0.010629548
      5913.24      0.96805325     0.010095867
      5919.16      0.98606016    0.0097519741
      5925.08       1.0042126    0.0094552539
      5931.00       1.0189319    0.0093567780
      5936.93       1.0364765    0.0093357574
      5942.87       1.0454129    0.0093145576
      5948.81       1.0454360    0.0092955109
      5954.76       1.0468251    0.0092781437
      5960.72       1.0539851    0.0092599481
      5966.68       1.0465293    0.0092413466
      5972.64       1.0324281    0.0092243434
      5978.62       1.0290114    0.0092087111
      5984.60       1.0141309    0.0091939141
      5990.58      0.99820132    0.0091795345
