# starting wavelength =        3225.0200
# ending wavelength =        10983.000
# O2 telluric scale =        0
# O2 telluric shift =        0
# H2O telluric scale =        0
# H2O telluric shift =        0
      3226.73      0.18805516     0.029786808
      3229.96      0.17436349     0.024262009
      3233.19      0.16144378     0.020836758
      3236.42      0.15575366     0.018956830
      3239.66      0.14964583     0.016731856
      3242.90      0.14304897     0.015009695
      3246.14      0.13832680     0.013278649
      3249.39      0.13394786     0.012311668
      3252.64      0.13261193     0.011766626
      3255.89      0.13461075     0.011120392
      3259.14      0.12840871     0.010598249
      3262.40      0.12621564     0.010110667
      3265.67      0.12563092    0.0097832957
      3268.93      0.12324202    0.0096007038
      3272.20      0.12240621    0.0093482075
      3275.47      0.12314184    0.0091267658
      3278.75      0.12160630    0.0089749320
      3282.03      0.12012036    0.0088045107
      3285.31      0.11692824    0.0087190040
      3288.60      0.12563295    0.0086402701
      3291.88      0.12569144    0.0085641401
      3295.18      0.12798429    0.0086250761
      3298.47      0.13347775    0.0086151194
      3301.77      0.13005672    0.0086761220
      3305.07      0.13240009    0.0085996915
      3308.38      0.13750688    0.0085898496
      3311.69      0.14074990    0.0086508230
      3315.00      0.14012343    0.0085742861
      3318.31      0.14638156    0.0086338429
      3321.63      0.14734154    0.0086254771
      3324.95      0.15228245    0.0085490306
      3328.28      0.15300618    0.0086083492
      3331.61      0.15416014    0.0086000620
      3334.94      0.14884931    0.0085928935
      3338.27      0.14771102    0.0085828843
      3341.61      0.15573893    0.0085743821
      3344.95      0.16456243    0.0086368771
      3348.30      0.16433947    0.0085573592
      3351.65      0.17046397    0.0085488571
      3355.00      0.17331242    0.0086111596
      3358.35      0.17316544    0.0086012594
      3361.71      0.18513751    0.0085230213
      3365.07      0.19087163    0.0085856144
      3368.44      0.19564115    0.0085754117
      3371.81      0.20404516    0.0084973595
      3375.18      0.21003185    0.0085600328
      3378.56      0.21422445    0.0085496869
      3381.94      0.21975778    0.0085404465
      3385.32      0.22276782    0.0085346795
      3388.70      0.22711360    0.0085238709
      3392.09      0.22890315    0.0085852499
      3395.48      0.23387288    0.0085767800
      3398.88      0.23419248    0.0084982537
      3402.28      0.23639466    0.0085590913
      3405.68      0.23559395    0.0085502049
      3409.09      0.23872104    0.0085424520
      3412.49      0.23693852    0.0085330153
      3415.91      0.24116461    0.0085236122
      3419.32      0.24295987    0.0085153208
      3422.74      0.24400918    0.0085786708
      3426.17      0.24708249    0.0084972549
      3429.59      0.24726798    0.0084884591
      3433.02      0.24261137    0.0085529370
      3436.45      0.24060389    0.0085424214
      3439.89      0.24068764    0.0084616693
      3443.33      0.24008385    0.0085274442
      3446.78      0.23614050    0.0085163847
      3450.22      0.23856386    0.0085062899
      3453.67      0.24477559    0.0085703341
      3457.13      0.24633473    0.0084906684
      3460.58      0.24595552    0.0084799080
      3464.04      0.24797556    0.0084701372
      3467.51      0.25292055    0.0085340489
      3470.98      0.24895439    0.0084541624
      3474.45      0.25698046    0.0084435373
      3477.92      0.26168246    0.0085066148
      3481.40      0.26231385    0.0084977184
      3484.88      0.26104484    0.0084898886
      3488.37      0.26314146    0.0084795879
      3491.86      0.26422306    0.0084700513
      3495.35      0.26216740    0.0084613264
      3498.84      0.26247342    0.0085273679
      3502.34      0.26047664    0.0085168259
      3505.84      0.25820540    0.0084334700
      3509.35      0.25973487    0.0084246331
      3512.86      0.25620668    0.0084904660
      3516.37      0.24937420    0.0084799116
      3519.89      0.24597973    0.0084700766
      3523.41      0.24382827    0.0084653613
      3526.93      0.24295422    0.0084538382
      3530.46      0.24650922    0.0084430653
      3533.99      0.25006265    0.0084329696
      3537.53      0.25006663    0.0084986599
      3541.06      0.25211087    0.0084901011
      3544.60      0.25541071    0.0084061446
      3548.15      0.25727558    0.0084705470
      3551.70      0.25838959    0.0084609765
      3555.25      0.26069097    0.0084519160
      3558.80      0.26640565    0.0084437846
      3562.36      0.26878191    0.0085096532
      3565.92      0.27312239    0.0084232404
      3569.49      0.27172553    0.0084137993
      3573.06      0.27439020    0.0084050748
      3576.64      0.27410768    0.0084723839
      3580.21      0.27220823    0.0084617403
      3583.79      0.27775604    0.0084518661
      3587.38      0.27892865    0.0084472191
      3590.96      0.27932858    0.0084354330
      3594.55      0.27556870    0.0084242134
      3598.15      0.27906964    0.0084137964
      3601.75      0.28074399    0.0084811955
      3605.35      0.28131388    0.0084718563
      3608.96      0.28260530    0.0084630401
      3612.56      0.28204365    0.0083764162
      3616.18      0.28101475    0.0084427483
      3619.79      0.27845058    0.0084326389
      3623.41      0.27181802    0.0084231478
      3627.04      0.26902177    0.0084140703
      3630.66      0.27103196    0.0084845516
      3634.29      0.27751391    0.0084736684
      3637.93      0.28170500    0.0084631328
      3641.57      0.28321422    0.0083742000
      3645.21      0.28562040    0.0083648194
      3648.86      0.28813988    0.0084361161
      3652.50      0.29227148    0.0084249472
      3656.16      0.29080636    0.0084141863
      3659.81      0.28924868    0.0084039637
      3663.47      0.29121915    0.0084740617
      3667.14      0.28753453    0.0084646515
      3670.80      0.28303642    0.0084556215
      3674.48      0.27672436    0.0083655189
      3678.15      0.27260404    0.0084344856
      3681.83      0.26705025    0.0084240085
      3685.51      0.26266307    0.0084141370
      3689.20      0.25960274    0.0084043149
      3692.88      0.25069443    0.0083951127
      3696.58      0.24532952    0.0084679456
      3700.27      0.24409777    0.0084568084
      3703.98      0.23585178    0.0084461421
      3707.68      0.22946496    0.0084357462
      3711.39      0.21704100    0.0084258453
      3715.10      0.20959346    0.0084200614
      3718.81      0.20237704    0.0084082871
      3722.53      0.19372954    0.0083967630
      3726.26      0.18931796    0.0083856643
      3729.98      0.18555149    0.0083749711
      3733.71      0.18378300    0.0084473203
      3737.45      0.17930119    0.0084371042
      3741.18      0.17846417    0.0084270840
      3744.93      0.17759816    0.0084172736
      3748.67      0.17512435    0.0084078327
      3752.42      0.17517085    0.0084831307
      3756.17      0.17329914    0.0084718418
      3759.93      0.17231101    0.0084611009
      3763.69      0.17028956    0.0084503838
      3767.45      0.17159519    0.0084399341
      3771.22      0.17454859    0.0085164755
      3774.99      0.17785190    0.0085063430
      3778.77      0.18355825    0.0084117401
      3782.54      0.18819948    0.0084000527
      3786.33      0.19719329    0.0083888824
      3790.11      0.20698064    0.0083776774
      3793.90      0.21885647    0.0084527570
      3797.70      0.22788767    0.0084418821
      3801.50      0.23719596    0.0084311407
      3805.30      0.24593447    0.0084207262
      3809.10      0.25828626    0.0084103761
      3812.91      0.27066511    0.0084003456
      3816.73      0.28319902    0.0084819635
      3820.54      0.29653537    0.0084702533
      3824.36      0.30934669    0.0084587703
      3828.19      0.32678595    0.0084473397
      3832.02      0.34415470    0.0084360250
      3835.85      0.36554253    0.0084249841
      3839.68      0.38543412    0.0084139938
      3843.52      0.40538238    0.0084930080
      3847.37      0.42623002    0.0084822064
      3851.22      0.44387308    0.0084714193
      3855.07      0.46348819    0.0084607879
      3858.92      0.48181544    0.0084502100
      3862.78      0.50034147    0.0084396451
      3866.64      0.51756766    0.0084294925
      3870.51      0.53613372    0.0085135968
      3874.38      0.55367108    0.0085020072
      3878.26      0.57397939    0.0084904010
      3882.13      0.59073083    0.0084787440
      3886.02      0.60456312    0.0084673357
      3889.90      0.61632293    0.0084559195
      3893.79      0.63153139    0.0084447438
      3897.69      0.64509796    0.0085273694
      3901.59      0.65472468    0.0085160179
      3905.49      0.66409309    0.0085048817
      3909.39      0.67908346    0.0084936399
      3913.30      0.69174171    0.0084823480
      3917.22      0.70889751    0.0084712973
      3921.13      0.72394124    0.0084601700
      3925.06      0.73876162    0.0084491253
      3928.98      0.75163052    0.0085373362
      3932.91      0.76336410    0.0086255574
      3936.84      0.77545384    0.0086141688
      3940.78      0.78930643    0.0086030342
      3944.72      0.80396304    0.0085915189
      3948.67      0.82042264    0.0085803685
      3952.61      0.83610996    0.0085690618
      3956.57      0.85402586    0.0085575986
      3960.52      0.87159248    0.0085464646
      3964.48      0.88409942    0.0085351787
      3968.45      0.89426081    0.0086297319
      3972.42      0.90373042    0.0086175568
      3976.39      0.91008752    0.0086056250
      3980.37      0.91234320    0.0085938267
      3984.35      0.91547625    0.0085819353
      3988.33      0.92072960    0.0085702337
      3992.32      0.92411725    0.0086644263
      3996.31      0.92347097    0.0086524414
      4000.31      0.90922836    0.0086403515
      4004.31      0.90267457    0.0086284086
      4008.31      0.89375488    0.0086165379
      4012.32      0.88190211    0.0086045411
      4016.33      0.87185072    0.0085926883
      4020.35      0.85867482    0.0085806156
      4024.37      0.84640371    0.0085683798
      4028.40      0.82921835    0.0085562627
      4032.42      0.81465846    0.0085439981
      4036.46      0.79815658    0.0085318198
      4040.50      0.77888094    0.0085197354
      4044.54      0.75887245    0.0085075372
      4048.58      0.74433146    0.0084954710
      4052.63      0.72954895    0.0084830821
      4056.68      0.71726492    0.0084708340
      4060.74      0.70635180    0.0084586799
      4064.80      0.69709015    0.0084464364
      4068.86      0.68786547    0.0084342913
      4072.93      0.67160245    0.0083208903
      4077.01      0.65528094    0.0083089228
      4081.08      0.64551888    0.0082968950
      4085.17      0.63514859    0.0082849931
      4089.25      0.62218018    0.0082732805
      4093.34      0.61008540    0.0082614417
      4097.43      0.59562582    0.0082497984
      4101.53      0.58512456    0.0082381583
      4105.63      0.57445642    0.0082265361
      4109.74      0.56748471    0.0082151306
      4113.85      0.55900520    0.0082036524
      4117.96      0.55101707    0.0081924184
      4122.08      0.54856308    0.0081813911
      4126.20      0.54422930    0.0081703617
      4130.33      0.54103502    0.0080576765
      4134.46      0.53820569    0.0080453216
      4138.59      0.53573558    0.0080329349
      4142.73      0.53311140    0.0080209880
      4146.88      0.53221643    0.0080089988
      4151.02      0.52365294    0.0079970706
      4155.18      0.52382465    0.0079855056
      4159.33      0.52166329    0.0080723948
      4163.49      0.51950429    0.0080608407
      4167.65      0.51716436    0.0080495880
      4171.82      0.51865341    0.0079436701
      4175.99      0.52144504    0.0079305705
      4180.17      0.52752980    0.0079178712
      4184.35      0.53226885    0.0079050401
      4188.54      0.53712547    0.0078927501
      4192.72      0.54150595    0.0078805293
      4196.92      0.54597674    0.0078684255
      4201.11      0.55096487    0.0078568981
      4205.31      0.55147784    0.0078454507
      4209.52      0.55531342    0.0077439657
      4213.73      0.55901826    0.0078267555
      4217.94      0.56221680    0.0078134507
      4222.16      0.56265168    0.0078002789
      4226.38      0.56635171    0.0077877532
      4230.61      0.56549479    0.0077754112
      4234.84      0.57011312    0.0077633442
      4239.08      0.57129490    0.0076622612
      4243.32      0.57238897    0.0076509514
      4247.56      0.57383181    0.0076400611
      4251.81      0.57906044    0.0076296248
      4256.06      0.58212126    0.0077072588
      4260.32      0.58429504    0.0076943742
      4264.58      0.58556418    0.0076818170
      4268.84      0.58564280    0.0075812981
      4273.11      0.58712585    0.0075698152
      4277.38      0.58628276    0.0075588426
      4281.66      0.58454666    0.0075482093
      4285.94      0.58446427    0.0075381150
      4290.23      0.58566075    0.0075284388
      4294.52      0.58719166    0.0075122614
      4298.81      0.58618849    0.0075003468
      4303.11      0.58511806    0.0074890269
      4307.42      0.58447533    0.0074781077
      4311.72      0.58047456    0.0074678133
      4316.04      0.57773475    0.0074580175
      4320.35      0.57556847    0.0073567763
      4324.67      0.56924600    0.0074310650
      4329.00      0.56279497    0.0074196155
      4333.33      0.55917553    0.0074086468
      4337.66      0.55137277    0.0073983796
      4342.00      0.54394002    0.0073006704
      4346.34      0.53532726    0.0072882221
      4350.69      0.52913098    0.0072762927
      4355.04      0.52295872    0.0073504427
      4359.39      0.51729028    0.0073397077
      4363.75      0.51564125    0.0072444946
      4368.12      0.51878460    0.0072316746
      4372.48      0.52178340    0.0072194924
      4376.86      0.52572663    0.0072079284
      4381.23      0.52737894    0.0072817139
      4385.61      0.53148038    0.0071881095
      4390.00      0.53683384    0.0071748881
      4394.39      0.54203988    0.0071625902
      4398.79      0.54765118    0.0071510281
      4403.18      0.55476975    0.0070614386
      4407.59      0.56283583    0.0071311142
      4412.00      0.57090772    0.0071179260
      4416.41      0.58095672    0.0071055578
      4420.82      0.58938176    0.0070941993
      4425.25      0.60212410    0.0070054626
      4429.67      0.61555216    0.0070737150
      4434.10      0.63288921    0.0070606790
      4438.54      0.65322984    0.0070486530
      4442.97      0.67606401    0.0069598980
      4447.42      0.70183669    0.0069499021
      4451.86      0.73198804    0.0070159388
      4456.32      0.75974819    0.0070035073
      4460.77      0.78781917    0.0069148621
      4465.24      0.81991141    0.0069045068
      4469.70      0.84987718    0.0068952951
      4474.17      0.88156243    0.0069583423
      4478.65      0.91159646    0.0068698824
      4483.12      0.94346588    0.0068595648
      4487.61      0.97215637    0.0068502483
      4492.09       1.0004367    0.0068366512
      4496.59       1.0275024    0.0068251140
      4501.08       1.0556452    0.0068148154
      4505.58       1.0856364    0.0068054504
      4510.09       1.1181535    0.0067168304
      4514.60       1.1492981    0.0067805958
      4519.12       1.1839120    0.0067703580
      4523.63       1.2198829    0.0067612511
      4528.16       1.2567142    0.0066726302
      4532.69       1.2940124    0.0067360449
      4537.22       1.3314327    0.0067259952
      4541.76       1.3690042    0.0066402493
      4546.30       1.4014025    0.0066284280
      4550.85       1.4357984    0.0066917482
      4555.40       1.4661888    0.0066084467
      4559.95       1.4955842    0.0065958178
      4564.51       1.5224486    0.0065844604
      4569.08       1.5464277    0.0066479546
      4573.65       1.5646882    0.0065636329
      4578.22       1.5780275    0.0065516556
      4582.80       1.5908803    0.0065410876
      4587.38       1.5972721    0.0065316077
      4591.97       1.6015363    0.0065190635
      4596.56       1.5997688    0.0065079356
      4601.16       1.5935489    0.0064995517
      4605.76       1.5877133    0.0064865531
      4610.37       1.5765029    0.0064750738
      4614.98       1.5648027    0.0063965813
      4619.59       1.5484652    0.0064542488
      4624.21       1.5300576    0.0064424140
      4628.84       1.5069214    0.0063638131
      4633.47       1.4798992    0.0064218012
      4638.10       1.4548227    0.0064098209
      4642.74       1.4271903    0.0063314678
      4647.38       1.3990247    0.0063895488
      4652.03       1.3703576    0.0063772484
      4656.68       1.3440165    0.0062991544
      4661.34       1.3170728    0.0062904658
      4666.00       1.2860057    0.0063447859
      4670.67       1.2596846    0.0062670867
      4675.33       1.2309679    0.0062585025
      4680.01       1.2051226    0.0062452332
      4684.69       1.1790727    0.0062350407
      4689.38       1.1562352    0.0062267376
      4694.07       1.1303328    0.0062132816
      4698.76       1.1053633    0.0062033960
      4703.46       1.0838459    0.0061952690
      4708.16       1.0586164    0.0061813047
      4712.87       1.0358673    0.0061717175
      4717.58       1.0156838    0.0060955700
      4722.30      0.99198959    0.0061495825
      4727.03      0.96911729    0.0061405146
      4731.75      0.94689418    0.0060638301
      4736.48      0.92617286    0.0061180041
      4741.22      0.91082866    0.0060438535
      4745.96      0.89918938    0.0060322602
      4750.71      0.88679801    0.0060868433
      4755.46      0.88006427    0.0060119377
      4760.22      0.87409224    0.0060009297
      4764.97      0.87211895    0.0059923595
      4769.74      0.87385320    0.0059802902
      4774.51      0.87622979    0.0060338660
      4779.29      0.88148754    0.0059601901
      4784.07      0.88516888    0.0059490682
      4788.85      0.89415694    0.0059408922
      4793.64      0.90377193    0.0059284926
      4798.43      0.91340351    0.0059184306
      4803.23      0.92343379    0.0059086531
      4808.03      0.93035931    0.0058974144
      4812.84      0.93080081    0.0058891057
      4817.66      0.93358753    0.0058768251
      4822.48      0.93729971    0.0058071248
      4827.30      0.93639495    0.0058569692
      4832.12      0.93786297    0.0058460191
      4836.96      0.93932766    0.0057780655
      4841.79      0.94276956    0.0058255141
      4846.63      0.94670666    0.0057568557
      4851.48      0.95085123    0.0058053358
      4856.33      0.96443415    0.0057361496
      4861.19      0.98033148    0.0057855639
      4866.05       1.0026199    0.0057156738
      4870.92       1.0259751    0.0057073298
      4875.79       1.0564842    0.0056954445
      4880.66       1.0890317    0.0056867066
      4885.55       1.1305374    0.0056756787
      4890.43       1.1651092    0.0056660390
      4895.32       1.2003928    0.0056591552
      4900.22       1.2367299    0.0056458051
      4905.12       1.2653650    0.0056384054
      4910.02       1.2918082    0.0056257596
      4914.94       1.3080971    0.0056178636
      4919.85       1.3158868    0.0056058161
      4924.77       1.3188106    0.0055974746
      4929.70       1.3142518    0.0055294474
      4934.62       1.3085353    0.0055773184
      4939.56       1.2940182    0.0055099833
      4944.50       1.2727331    0.0055573440
      4949.44       1.2475983    0.0054904751
      4954.39       1.2150654    0.0055373550
