# starting wavelength =        4168.6400
# ending wavelength =        8136.3000
# O2 telluric scale =        0
# O2 telluric shift =        0
# H2O telluric scale =        0
# H2O telluric shift =        0
      4171.82      0.45114086     0.010513001
      4175.99      0.44442005    0.0089220122
      4180.17      0.43811594    0.0080448647
      4184.35      0.43132326    0.0070110687
      4188.54      0.42459613    0.0059965729
      4192.72      0.41744233    0.0054200102
      4196.92      0.41046599    0.0049744299
      4201.11      0.40471012    0.0046220870
      4205.31      0.39954516    0.0043684997
      4209.52      0.39496748    0.0041965646
      4213.73      0.39098147    0.0040884911
      4217.94      0.38759116    0.0040283362
      4222.16      0.38729772    0.0036648003
      4226.38      0.38514236    0.0036029818
      4230.61      0.38561165    0.0035309163
      4234.84      0.38493724    0.0035059819
      4239.08      0.38460792    0.0034860022
      4243.32      0.38282868    0.0034762739
      4247.56      0.38206885    0.0035168280
      4251.81      0.38129356    0.0035642210
      4256.06      0.38250382    0.0036450093
      4260.32      0.38445496    0.0037029458
      4264.58      0.38433420    0.0037791971
      4268.84      0.38426565    0.0038341796
      4273.11      0.38605557    0.0038826267
      4277.38      0.38808115    0.0039695646
      4281.66      0.39015713    0.0039512030
      4285.94      0.39022221    0.0040218771
      4290.23      0.39354399    0.0040029575
      4294.52      0.39869544    0.0040252392
      4298.81      0.40478511    0.0039865261
      4303.11      0.41003743    0.0039695421
      4307.42      0.41138353    0.0039080391
      4311.72      0.41221150    0.0038418308
      4316.04      0.41554266    0.0038105766
      4320.35      0.41865170    0.0037112729
      4324.67      0.41960019    0.0036820402
      4329.00      0.42053043    0.0036256712
      4333.33      0.42193537    0.0035884055
      4337.66      0.42270819    0.0036038390
      4342.00      0.42457698    0.0036651667
      4346.34      0.42936154    0.0039318110
      4350.69      0.43020630    0.0038244904
      4355.04      0.43021218    0.0037687397
      4359.39      0.42909227    0.0036856605
      4363.75      0.42844606    0.0036474520
      4368.12      0.42921117    0.0036814069
      4372.48      0.42778708    0.0036460949
      4376.86      0.42424130    0.0036791534
      4381.23      0.41855258    0.0036790548
      4385.61      0.41431306    0.0036794681
      4390.00      0.41258442    0.0037154285
      4394.39      0.41059517    0.0037148966
      4398.79      0.40829448    0.0037504457
      4403.18      0.40786949    0.0037509213
      4407.59      0.40716160    0.0037517777
      4412.00      0.40577261    0.0037893010
      4416.41      0.40452398    0.0037893321
      4420.82      0.40390283    0.0038274220
      4425.25      0.40251744    0.0038283731
      4429.67      0.40185947    0.0038297804
      4434.10      0.40175478    0.0038692264
      4438.54      0.40028733    0.0038695867
      4442.97      0.40129262    0.0039104724
      4447.42      0.40226463    0.0039119199
      4451.86      0.40636161    0.0039138700
      4456.32      0.41121218    0.0039555434
      4460.77      0.41878901    0.0039563000
      4465.24      0.42656670    0.0039122892
      4469.70      0.43258296    0.0039573564
      4474.17      0.43860779    0.0039573457
      4478.65      0.44467094    0.0040004274
      4483.12      0.45161019    0.0040015164
      4487.61      0.45742040    0.0040030740
      4492.09      0.46331315    0.0040515743
      4496.59      0.47061625    0.0040518024
      4501.08      0.47850574    0.0040526167
      4505.58      0.48736116    0.0040993881
      4510.09      0.49463566    0.0041011086
      4514.60      0.50165433    0.0041542339
      4519.12      0.50784618    0.0041546212
      4523.63      0.51400850    0.0041554035
      4528.16      0.51920623    0.0042054435
      4532.69      0.52519377    0.0042072174
      4537.22      0.53066471    0.0042095482
      4541.76      0.53466891    0.0042664228
      4546.30      0.54201412    0.0042671547
      4550.85      0.55599294    0.0043294384
      4555.40      0.56822488    0.0043843131
      4559.95      0.58001239    0.0043864962
      4564.51      0.58831732    0.0044462300
      4569.08      0.59488435    0.0043897070
      4573.65      0.60291765    0.0043907282
      4578.22      0.60978421    0.0043921376
      4582.80      0.61786679    0.0043941591
      4587.38      0.62847471    0.0043967861
      4591.97      0.63658260    0.0043995616
      4596.56      0.64236074    0.0044009896
      4601.16      0.64682378    0.0044021119
      4605.76      0.64880083    0.0044038355
      4610.37      0.65146997    0.0044058709
      4614.98      0.65264266    0.0044082065
      4619.59      0.65283615    0.0044110865
      4624.21      0.65194719    0.0043521360
      4628.84      0.64950669    0.0043556182
      4633.47      0.64377012    0.0043593184
      4638.10      0.64091359    0.0044194871
      4642.74      0.63752009    0.0044219149
      4647.38      0.63123478    0.0044245832
      4652.03      0.62582474    0.0044274789
      4656.68      0.62297370    0.0043682627
      4661.34      0.62103308    0.0043719243
      4666.00      0.61713741    0.0043757609
      4670.67      0.61451494    0.0043797453
      4675.33      0.61055844    0.0043841222
      4680.01      0.60521501    0.0044432478
      4684.69      0.60096311    0.0044462601
      4689.38      0.59670567    0.0043865965
      4694.07      0.59006505    0.0043900321
      4698.76      0.58484115    0.0043938638
      4703.46      0.58031575    0.0043978041
      4708.16      0.57633254    0.0044018424
      4712.87      0.57258236    0.0044062067
      4717.58      0.57006908    0.0044108878
      4722.30      0.56867024    0.0044155899
      4727.03      0.56824556    0.0043578392
      4731.75      0.56941769    0.0043613405
      4736.48      0.57021028    0.0044182696
      4741.22      0.57309264    0.0044222097
      4745.96      0.57471059    0.0044261577
      4750.71      0.57405905    0.0044303689
      4755.46      0.56992560    0.0044348735
      4760.22      0.56324257    0.0044393573
      4764.97      0.55604144    0.0044439951
      4769.74      0.55149532    0.0044488796
      4774.51      0.54989189    0.0043929436
      4779.29      0.54784365    0.0043966279
      4784.07      0.54613147    0.0044004401
      4788.85      0.54710766    0.0044044699
      4793.64      0.54940939    0.0044086184
      4798.43      0.55334231    0.0044128544
      4803.23      0.55937877    0.0044172095
      4808.03      0.56567169    0.0044217395
      4812.84      0.57361688    0.0044263673
      4817.66      0.57990110    0.0044848739
      4822.48      0.58721687    0.0044896127
      4827.30      0.59515409    0.0044373752
      4832.12      0.60330437    0.0044414220
      4836.96      0.60710433    0.0044455417
      4841.79      0.60665069    0.0044497220
      4846.63      0.60241802    0.0044541071
      4851.48      0.59510634    0.0044585808
      4856.33      0.58626884    0.0044629319
      4861.19      0.57984871    0.0044674519
      4866.05      0.57693096    0.0044721402
      4870.92      0.57442561    0.0044768375
      4875.79      0.57179744    0.0044815276
      4880.66      0.56971951    0.0044863722
      4885.55      0.56817185    0.0044912679
      4890.43      0.56918025    0.0044961841
      4895.32      0.57250870    0.0045011337
      4900.22      0.57687104    0.0045062153
      4905.12      0.58700917    0.0045113188
      4910.02      0.59962185    0.0044555028
      4914.94      0.61592397    0.0044605192
      4919.85      0.63600779    0.0044656741
      4924.77      0.65393475    0.0044708443
      4929.70      0.67374128    0.0044760079
      4934.62      0.69367153    0.0044811498
      4939.56      0.71053039    0.0044864169
      4944.50      0.72512796    0.0044916512
      4949.44      0.73971030    0.0044969877
      4954.39      0.75376784    0.0045023026
      4959.35      0.76436936    0.0045077459
      4964.31      0.76911799    0.0045131736
      4969.27      0.76870833    0.0045185425
      4974.24      0.76474873    0.0045239995
      4979.22      0.75696560    0.0045295036
      4984.20      0.74536825    0.0045350003
      4989.18      0.72920710    0.0045404723
      4994.17      0.71224125    0.0045460618
      4999.16      0.69618648    0.0045516758
      5004.16      0.67716620    0.0045572784
      5009.17      0.65827603    0.0045628465
      5014.18      0.64164859    0.0045685479
      5019.19      0.62832590    0.0045221942
      5024.21      0.61941668    0.0045279258
      5029.23      0.61069802    0.0045336706
      5034.26      0.60388166    0.0045394078
      5039.30      0.60078358    0.0045452508
      5044.34      0.59991003    0.0045510357
      5049.39      0.59991468    0.0045569252
      5054.43      0.60152634    0.0045627675
      5059.49      0.60608849    0.0045688443
      5064.55      0.61273423    0.0045748699
      5069.61      0.61991436    0.0045809122
      5074.68      0.62644044    0.0045870736
      5079.76      0.63400732    0.0045933516
      5084.84      0.64114303    0.0045996227
      5089.92      0.65205196    0.0046059360
      5095.01      0.66254907    0.0046123865
      5100.11      0.67013444    0.0046189645
      5105.21      0.67771684    0.0045697712
      5110.31      0.68855374    0.0045754858
      5115.42      0.69987947    0.0045814171
      5120.54      0.70887454    0.0045872735
      5125.66      0.71621766    0.0046532295
      5130.79      0.72299140    0.0046593574
      5135.92      0.72912626    0.0046656322
      5141.05      0.73153116    0.0046719732
      5146.20      0.73264083    0.0046783181
      5151.34      0.73373199    0.0046849631
      5156.49      0.73666637    0.0046916067
      5161.65      0.73898790    0.0046984291
      5166.81      0.74033252    0.0046510913
      5171.98      0.74405039    0.0046568944
      5177.15      0.74999800    0.0046627368
      5182.33      0.75487096    0.0046686039
      5187.51      0.76227242    0.0046747356
      5192.70      0.76958231    0.0046809944
      5197.89      0.77709547    0.0046873450
      5203.09      0.78607947    0.0046937381
      5208.29      0.79805818    0.0047004391
      5213.50      0.81294172    0.0047167054
      5218.72      0.82470756    0.0047221208
      5223.93      0.83534628    0.0047278572
      5229.16      0.84638679    0.0047337783
      5234.39      0.85687780    0.0047398100
      5239.62      0.86523841    0.0047459327
      5244.86      0.87400048    0.0047524111
      5250.11      0.88363251    0.0047589338
      5255.36      0.89582479    0.0047141788
      5260.61      0.90741775    0.0047211174
      5265.87      0.91924999    0.0047284043
      5271.14      0.93388946    0.0047937377
      5276.41      0.94491316    0.0047995880
      5281.69      0.95258845    0.0048058544
      5286.97      0.95953616    0.0047602752
      5292.26      0.96796826    0.0047668199
      5297.55      0.97698762    0.0047736558
      5302.85      0.98749071    0.0047809075
      5308.15      0.99795641    0.0047883129
      5313.46       1.0073605    0.0047959132
      5318.77       1.0163277    0.0048599814
      5324.09       1.0246086    0.0048137972
      5329.42       1.0299064    0.0048203142
      5334.75       1.0331884    0.0048272860
      5340.08       1.0346633    0.0048347283
      5345.42       1.0353142    0.0048423771
      5350.77       1.0353586    0.0048502711
      5356.12       1.0313713    0.0048014790
      5361.48       1.0275385    0.0048680421
      5366.83       1.0199676    0.0048747921
      5372.20       1.0097309    0.0048820529
      5377.58      0.99759545    0.0048898489
      5382.95      0.98739094    0.0048427295
      5388.34      0.98018842    0.0048487232
      5393.72      0.97522264    0.0048552287
      5399.12      0.97247230    0.0049229464
      5404.52      0.97495522    0.0049302156
      5409.92      0.98002661    0.0048843453
      5415.33      0.98482856    0.0048902516
      5420.75      0.99322766    0.0048963842
      5426.17       1.0030852    0.0049030114
      5431.60       1.0148866    0.0049716134
      5437.03       1.0300958    0.0049261440
      5442.47       1.0450622    0.0049315935
      5447.91       1.0605883    0.0049376748
      5453.36       1.0761139    0.0049443788
      5458.81       1.0892462    0.0049514105
      5464.27       1.1019958    0.0049676915
      5469.73       1.1118699    0.0049732703
      5475.20       1.1219645    0.0049791630
      5480.68       1.1340587    0.0049856671
      5486.16       1.1430324    0.0049414513
      5491.65       1.1466263    0.0050091321
      5497.14       1.1503763    0.0050144894
      5502.64       1.1537652    0.0050206167
      5508.14       1.1528785    0.0049757071
      5513.65       1.1480566    0.0049829481
      5519.16       1.1396987    0.0050500125
      5524.68       1.1312514    0.0050558183
      5530.20       1.1188438    0.0050100791
      5535.73       1.1067911    0.0050171067
      5541.27       1.0951262    0.0050249529
      5546.81       1.0812021    0.0050911697
      5552.36       1.0675704    0.0050445782
      5557.91       1.0553832    0.0050514913
      5563.47       1.0436643    0.0050592730
      5569.04       1.0326751    0.0050677461
      5574.60       1.0257532    0.0050792638
      5580.18       1.0191759    0.0050861566
      5585.76       1.0130558    0.0050938045
      5591.35       1.0054455    0.0051021814
      5596.94       1.0000793    0.0051138842
      5602.53      0.99563870    0.0051208809
      5608.14      0.98964703    0.0051284559
      5613.75      0.98081803    0.0050817526
      5619.36      0.96627978    0.0051486185
      5624.98      0.94756876    0.0051554307
      5630.60      0.92368701    0.0051632977
      5636.23      0.89213816    0.0051157409
      5641.87      0.85817999    0.0051219535
      5647.51      0.81921628    0.0051902266
      5653.16      0.77744048    0.0051441210
      5658.82      0.73509148    0.0051497263
      5664.47      0.68972708    0.0052176552
      5670.14      0.64987917    0.0052253294
      5675.81      0.61518839    0.0051776819
      5681.48      0.58537813    0.0051835959
      5687.17      0.55671218    0.0052524805
      5692.85      0.54423201    0.0052057561
      5698.55      0.54237115    0.0052110877
      5704.25      0.54703654    0.0052175822
      5709.95      0.56162091    0.0052337744
      5715.66      0.58265878    0.0052387675
      5721.38      0.60788581    0.0052448138
      5727.10      0.63765954    0.0052003080
      5732.83      0.67185295    0.0052664306
      5738.56      0.70478355    0.0052721029
      5744.30      0.73734278    0.0052270077
      5750.04      0.77063119    0.0052940794
      5755.79      0.80072474    0.0052993882
      5761.55      0.82890006    0.0052537113
      5767.31      0.85317972    0.0053213764
      5773.08      0.87869697    0.0053266517
      5778.85      0.90738023    0.0052811059
      5784.63      0.93680967    0.0052898009
      5790.41      0.96262427    0.0053553473
      5796.21      0.99166449    0.0053095080
      5802.00       1.0193991    0.0053180857
      5807.81       1.0461254    0.0053321739
      5813.61       1.0681291    0.0053414894
      5819.43       1.0884234    0.0053533935
      5825.25       1.1109604    0.0054853581
      5831.07       1.1318958    0.0056474140
      5836.90       1.1512574    0.0058668875
      5842.74       1.1672170    0.0061579889
      5848.58       1.1800453    0.0065664046
      5854.43       1.1908663    0.0072119361
      5860.29       1.1986156    0.0085491154
      5866.15       1.2052922    0.0069087624
      5872.01       1.2102971    0.0069049395
      5877.89       1.2145903    0.0076878191
      5883.76       1.2266009    0.0083488928
      5889.65       1.2432296    0.0085878864
      5895.54       1.2614355    0.0094426278
      5901.43       1.2757609    0.0095495395
      5907.34       1.2873897    0.0091033663
      5913.24       1.2899145    0.0086258152
      5919.16       1.2937652    0.0080723039
      5925.08       1.2970723    0.0074823138
      5931.00       1.2993845    0.0072516334
      5936.93       1.2976571    0.0070709590
      5942.87       1.2927903    0.0078540865
      5948.81       1.2871078    0.0071669922
      5954.76       1.2836817    0.0065772647
      5960.72       1.2749109    0.0061204312
      5966.68       1.2641994    0.0058818280
      5972.64       1.2516025    0.0056695385
      5978.62       1.2393643    0.0055274590
      5984.60       1.2224381    0.0055320582
      5990.58       1.2050084    0.0055454776
      5996.57       1.1898019    0.0055495252
      6002.57       1.1756838    0.0055029687
      6008.57       1.1630744    0.0055680482
      6014.58       1.1542005    0.0055204724
      6020.60       1.1473880    0.0055868506
      6026.62       1.1403663    0.0055382733
      6032.65       1.1329362    0.0055453428
      6038.68       1.1272453    0.0056100246
      6044.72       1.1216153    0.0055628979
      6050.76       1.1132234    0.0056286704
      6056.81       1.1031454    0.0055804488
      6062.87       1.0972100    0.0055884065
      6068.93       1.0926410    0.0055980908
      6075.00       1.0824321    0.0056054277
      6081.08       1.0692880    0.0056158162
      6087.16       1.0601193    0.0056225152
      6093.25       1.0496820    0.0056336124
      6099.34       1.0440180    0.0056397630
      6105.44       1.0416149    0.0055904216
      6111.54       1.0420895    0.0056569717
      6117.66       1.0488590    0.0056079444
      6123.78       1.0584463    0.0056741022
      6129.90       1.0715508    0.0056253661
      6136.03       1.0895973    0.0056912514
      6142.17       1.1098482    0.0056425039
      6148.31       1.1303003    0.0057082580
      6154.46       1.1531648    0.0056597168
      6160.61       1.1758980    0.0056640720
      6166.77       1.2041945    0.0056799701
      6172.94       1.2307009    0.0056856659
      6179.11       1.2582515    0.0056984267
      6185.29       1.2839335    0.0057023531
      6191.48       1.3053480    0.0057203607
      6197.67       1.3284396    0.0057294041
      6203.87       1.3547769    0.0057551124
      6210.07       1.3732570    0.0057685368
      6216.28       1.3885890    0.0057982662
      6222.50       1.3985614    0.0058124881
      6228.72       1.4031360    0.0058396676
      6234.95       1.4002369    0.0058499896
      6241.19       1.3884249    0.0058685018
      6247.42       1.3778807    0.0058718511
      6253.67       1.3641726    0.0058786503
      6259.93       1.3469411    0.0058197660
      6266.19       1.3262320    0.0058738565
      6272.46       1.3079630    0.0058127880
      6278.73       1.2874044    0.0058678709
      6285.01       1.2690517    0.0058118103
      6291.29       1.2468136    0.0058726236
      6297.58       1.2281790    0.0058159011
      6303.88       1.2153198    0.0058741526
      6310.19       1.2065750    0.0058204349
      6316.50       1.2062535    0.0058258330
      6322.81       1.2065307    0.0058281866
      6329.14       1.2091680    0.0058340001
      6335.47       1.2139979    0.0058378509
      6341.80       1.2207576    0.0058439435
      6348.14       1.2276685    0.0058491227
      6354.49       1.2351982    0.0058560878
      6360.85       1.2452055    0.0058055670
      6367.21       1.2606693    0.0058698435
      6373.57       1.2775419    0.0058188530
      6379.95       1.2941389    0.0058844721
      6386.33       1.3088691    0.0058947575
      6392.72       1.3210749    0.0058480212
      6399.11       1.3340967    0.0059155308
      6405.51       1.3464695    0.0058704652
