# starting wavelength =        3135.1600
# ending wavelength =        6150.5000
# O2 telluric scale =        0
# O2 telluric shift =        0
# H2O telluric scale =        0
# H2O telluric shift =        0
      3137.67      0.30772104     0.012279619
      3140.81      0.32417656     0.011010348
      3143.95      0.33961682    0.0094475553
      3147.10      0.34832791    0.0079218371
      3150.24      0.35567076    0.0070547137
      3153.39      0.36246078    0.0065799017
      3156.55      0.36917448    0.0060161509
      3159.70      0.37420721    0.0054512664
      3162.86      0.38020328    0.0051388973
      3166.03      0.38602319    0.0049643669
      3169.19      0.38860995    0.0047127135
      3172.36      0.38723770    0.0045504111
      3175.54      0.38669136    0.0044605586
      3178.71      0.38324004    0.0043369371
      3181.89      0.38174248    0.0042451749
      3185.07      0.37674187    0.0041542152
      3188.26      0.37366707    0.0041075376
      3191.45      0.36844766    0.0040308597
      3194.64      0.36579814    0.0040283618
      3197.83      0.35841013    0.0040284384
      3201.03      0.35162548    0.0040628695
      3204.23      0.34462134    0.0040624572
      3207.44      0.34137021    0.0040615567
      3210.64      0.34221797    0.0040957471
      3213.85      0.34104501    0.0040959071
      3217.07      0.33878680    0.0041324437
      3220.28      0.34041465    0.0040938823
      3223.51      0.34104224    0.0041314122
      3226.73      0.33926219    0.0041304939
      3229.96      0.33871975    0.0041675673
      3233.19      0.33719991    0.0041292931
      3236.42      0.33760475    0.0041657391
      3239.66      0.33487579    0.0041663961
      3242.90      0.33390585    0.0042047422
      3246.14      0.33178936    0.0042048134
      3249.39      0.33089874    0.0042039453
      3252.64      0.33001897    0.0042033192
      3255.89      0.32922848    0.0042427461
      3259.14      0.33671565    0.0042444798
      3262.40      0.33907734    0.0042409598
      3265.67      0.34105596    0.0042838222
      3268.93      0.34263358    0.0042827443
      3272.20      0.34533700    0.0043239657
      3275.47      0.34361045    0.0043254238
      3278.75      0.34145541    0.0043227527
      3282.03      0.33855277    0.0043233408
      3285.31      0.33670908    0.0043679635
      3288.60      0.33257545    0.0043675833
      3291.88      0.33084027    0.0044120092
      3295.18      0.33004289    0.0043671017
      3298.47      0.33216810    0.0044103941
      3301.77      0.32998524    0.0044115694
      3305.07      0.33093937    0.0044584965
      3308.38      0.33291063    0.0044586185
      3311.69      0.33332972    0.0044590344
      3315.00      0.33344419    0.0044580610
      3318.31      0.33525827    0.0045045285
      3321.63      0.33336456    0.0045062747
      3324.95      0.33217065    0.0045559691
      3328.28      0.33031876    0.0045565021
      3331.61      0.32968230    0.0045568181
      3334.94      0.32535754    0.0045560054
      3338.27      0.32464040    0.0046056972
      3341.61      0.32577844    0.0046077161
      3344.95      0.32647571    0.0046611435
      3348.30      0.33046624    0.0046617472
      3351.65      0.33326872    0.0046625472
      3355.00      0.33553836    0.0046616028
      3358.35      0.33994882    0.0047147068
      3361.71      0.34548910    0.0047166022
      3365.07      0.34749647    0.0047748139
      3368.44      0.35098350    0.0047751608
      3371.81      0.35758925    0.0047170098
      3375.18      0.36182693    0.0047757325
      3378.56      0.36600745    0.0047759553
      3381.94      0.37139015    0.0048340960
      3385.32      0.37590780    0.0048373289
      3388.70      0.38240927    0.0048981268
      3392.09      0.39003795    0.0048995614
      3395.48      0.39792544    0.0049634346
      3398.88      0.40568339    0.0048994581
      3402.28      0.41463888    0.0049610603
      3405.68      0.42020520    0.0049639527
      3409.09      0.42786314    0.0050322802
      3412.49      0.43370626    0.0050326911
      3415.91      0.44119608    0.0051005342
      3419.32      0.44649921    0.0051045250
      3422.74      0.45379298    0.0051765690
      3426.17      0.45815493    0.0051013201
      3429.59      0.46010916    0.0051048942
      3433.02      0.46431949    0.0051789343
      3436.45      0.46748871    0.0051798123
      3439.89      0.46975232    0.0052534573
      3443.33      0.46969505    0.0052579583
      3446.78      0.46603921    0.0051817743
      3450.22      0.46151891    0.0051833499
      3453.67      0.45830927    0.0052580316
      3457.13      0.45460761    0.0051851435
      3460.58      0.45012062    0.0051856062
      3464.04      0.44605441    0.0051875668
      3467.51      0.44441828    0.0052628675
      3470.98      0.44407883    0.0051885146
      3474.45      0.44303857    0.0051894817
      3477.92      0.44295075    0.0051919458
      3481.40      0.44295409    0.0051929547
      3484.88      0.44388956    0.0051925614
      3488.37      0.44442187    0.0051939452
      3491.86      0.44676989    0.0051966956
      3495.35      0.44951383    0.0051973312
      3498.84      0.45187430    0.0051970907
      3502.34      0.45580048    0.0051984891
      3505.84      0.45778651    0.0052014911
      3509.35      0.45779605    0.0052023228
      3512.86      0.45749087    0.0052023196
      3516.37      0.45928313    0.0052035418
      3519.89      0.45744288    0.0052063554
      3523.41      0.45778634    0.0051325604
      3526.93      0.45702036    0.0052076298
      3530.46      0.45846859    0.0052087183
      3533.99      0.45970558    0.0052111793
      3537.53      0.45876328    0.0051373627
      3541.06      0.45782743    0.0052137781
      3544.60      0.45850339    0.0052146570
      3548.15      0.45931352    0.0052165534
      3551.70      0.45906093    0.0051421972
      3555.25      0.45715102    0.0051461557
      3558.80      0.45895157    0.0052207425
      3562.36      0.45812853    0.0052223256
      3565.92      0.46023107    0.0051474357
      3569.49      0.46141799    0.0051509526
      3573.06      0.46325468    0.0051555554
      3576.64      0.46407305    0.0052287217
      3580.21      0.46752206    0.0051529766
      3583.79      0.47109291    0.0051558767
      3587.38      0.47269886    0.0051596720
      3590.96      0.47647762    0.0051646899
      3594.55      0.47771884    0.0051703426
      3598.15      0.47880323    0.0051618700
      3601.75      0.47726608    0.0051646425
      3605.35      0.47318336    0.0051686364
      3608.96      0.47206315    0.0051733729
      3612.56      0.47056433    0.0051025225
      3616.18      0.46896637    0.0051708375
      3619.79      0.46448511    0.0051738508
      3623.41      0.45736024    0.0051776620
      3627.04      0.45453459    0.0051819318
      3630.66      0.45479511    0.0051121131
      3634.29      0.45734032    0.0051140414
      3637.93      0.45749278    0.0051830259
      3641.57      0.46031604    0.0051865207
      3645.21      0.46538432    0.0051906846
      3648.86      0.47147043    0.0051224901
      3652.50      0.47705752    0.0051241043
      3656.16      0.48143119    0.0051264252
      3659.81      0.48730764    0.0051292846
      3663.47      0.49189709    0.0051993681
      3667.14      0.49736929    0.0052036664
      3670.80      0.50112203    0.0051351229
      3674.48      0.50388728    0.0051369810
      3678.15      0.50668034    0.0051392898
      3681.83      0.50640658    0.0051422136
      3685.51      0.50482354    0.0051456058
      3689.20      0.50072176    0.0051472568
      3692.88      0.49513256    0.0051485961
      3696.58      0.49064252    0.0051505303
      3700.27      0.48551108    0.0051528212
      3703.98      0.47495258    0.0051554723
      3707.68      0.46309459    0.0051586524
      3711.39      0.45522178    0.0050895278
      3715.10      0.44737849    0.0050934041
      3718.81      0.43645678    0.0051649780
      3722.53      0.42234645    0.0051671116
      3726.26      0.41066346    0.0051695318
      3729.98      0.40288286    0.0051722394
      3733.71      0.39875951    0.0051754116
      3737.45      0.39467186    0.0051059444
      3741.18      0.38628239    0.0051096777
      3744.93      0.37719894    0.0051137979
      3748.67      0.37196588    0.0051183590
      3752.42      0.36968011    0.0051871263
      3756.17      0.37080255    0.0051896729
      3759.93      0.37452959    0.0051926168
      3763.69      0.37861941    0.0051226255
      3767.45      0.37787435    0.0051260305
      3771.22      0.37453842    0.0051297592
      3774.99      0.37080028    0.0051338801
      3778.77      0.37030570    0.0051379287
      3782.54      0.37253816    0.0051424408
      3786.33      0.37581071    0.0051468797
      3790.11      0.37808535    0.0052136953
      3793.90      0.38642337    0.0051431919
      3797.70      0.39742749    0.0051463862
      3801.50      0.40681134    0.0051499707
      3805.30      0.41090973    0.0051534615
      3809.10      0.41102044    0.0051573230
      3812.91      0.40961260    0.0051611151
      3816.73      0.41394610    0.0051651731
      3820.54      0.42510367    0.0051695118
      3824.36      0.43948431    0.0051026741
      3828.19      0.45727407    0.0051057173
      3832.02      0.48120014    0.0051086431
      3835.85      0.50326564    0.0051117424
      3839.68      0.52756114    0.0051148882
      3843.52      0.55252917    0.0051808852
      3847.37      0.58866348    0.0051844226
      3851.22      0.62890804    0.0051880015
      3855.07      0.66947759    0.0051917522
      3858.92      0.70734681    0.0051957415
      3862.78      0.74414166    0.0051995089
      3866.64      0.77364917    0.0051352131
      3870.51      0.80508606    0.0051378554
      3874.38      0.82910069    0.0051408199
      3878.26      0.84927682    0.0051437960
      3882.13      0.87193195    0.0051467603
      3886.02      0.89559587    0.0051500691
      3889.90      0.91786438    0.0051530381
      3893.79      0.93776313    0.0051563363
      3897.69      0.95594062    0.0051595995
      3901.59      0.97113827    0.0051628369
      3905.49      0.98795966    0.0051663546
      3909.39       1.0033140    0.0051698347
      3913.30       1.0193762    0.0051733052
      3917.22       1.0325729    0.0051767078
      3921.13       1.0448805    0.0051108084
      3925.06       1.0556530    0.0051142889
      3928.98       1.0587885    0.0051177499
      3932.91       1.0567698    0.0051212743
      3936.84       1.0543918    0.0051248905
      3940.78       1.0487656    0.0051283494
      3944.72       1.0427515    0.0051318462
      3948.67       1.0363603    0.0051353028
      3952.61       1.0341351    0.0051388302
      3956.57       1.0354468    0.0051424020
      3960.52       1.0394927    0.0051459010
      3964.48       1.0400700    0.0051494794
      3968.45       1.0430062    0.0051529374
      3972.42       1.0484849    0.0051563272
      3976.39       1.0562801    0.0051597625
      3980.37       1.0678154    0.0051631257
      3984.35       1.0826277    0.0051665841
      3988.33       1.0977283    0.0051700851
      3992.32       1.1151560    0.0051735293
      3996.31       1.1340928    0.0051768258
      4000.31       1.1478354    0.0051800589
      4004.31       1.1591780    0.0051833867
      4008.31       1.1694170    0.0051867527
      4012.32       1.1749352    0.0051900439
      4016.33       1.1747920    0.0051934331
      4020.35       1.1732190    0.0051966763
      4024.37       1.1715855    0.0051998343
      4028.40       1.1667336    0.0052030541
      4032.42       1.1621330    0.0052061823
      4036.46       1.1520124    0.0052093698
      4040.50       1.1386462    0.0052126064
      4044.54       1.1252349    0.0052157715
      4048.58       1.1112166    0.0052190277
      4052.63       1.0982028    0.0052220744
      4056.68       1.0846582    0.0052252117
      4060.74       1.0733235    0.0052283968
      4064.80       1.0597061    0.0052315244
      4068.86       1.0432064    0.0052347181
      4072.93       1.0205513    0.0051775863
      4077.01      0.99843395    0.0051807565
      4081.08      0.97892187    0.0051838874
      4085.17      0.96188528    0.0051870838
      4089.25      0.94537109    0.0051904068
      4093.34      0.92944113    0.0051936444
      4097.43      0.91529545    0.0051969975
      4101.53      0.90341635    0.0052003635
      4105.63      0.89281280    0.0052037228
      4109.74      0.88398080    0.0052072212
      4113.85      0.87504409    0.0052106690
      4117.96      0.87100825    0.0052142625
      4122.08      0.86800682    0.0052179915
      4126.20      0.86974871    0.0052217189
      4130.33      0.87630603    0.0051630263
      4134.46      0.88185928    0.0051657559
      4138.59      0.88717701    0.0051684578
      4142.73      0.88667525    0.0051714372
      4146.88      0.88338285    0.0051743816
      4151.02      0.87739477    0.0051773594
      4155.18      0.87152276    0.0051805730
      4159.33      0.86570833    0.0052504812
      4163.49      0.86094845    0.0052538115
      4167.65      0.85548085    0.0052573374
      4171.82      0.84607314    0.0052016250
      4175.99      0.84021585    0.0052037969
      4180.17      0.83433405    0.0052062271
      4184.35      0.83193072    0.0052085535
      4188.54      0.82816790    0.0052112250
      4192.72      0.82797713    0.0052139285
      4196.92      0.83115692    0.0052167049
      4201.11      0.83567743    0.0052198523
      4205.31      0.84285714    0.0052230447
      4209.52      0.85450096    0.0051688501
      4213.73      0.86489894    0.0052376564
      4217.94      0.87398497    0.0052395864
      4222.16      0.88206441    0.0052415877
      4226.38      0.88966763    0.0052440050
      4230.61      0.89650621    0.0052465369
      4234.84      0.90305894    0.0052492448
      4239.08      0.90667485    0.0051943101
      4243.32      0.90882494    0.0051973831
      4247.56      0.91102264    0.0052007392
      4251.81      0.90957498    0.0052043826
      4256.06      0.90836554    0.0052709583
      4260.32      0.90649173    0.0052730360
      4264.58      0.90432820    0.0052753190
      4268.84      0.89833528    0.0052197476
      4273.11      0.89597192    0.0052226234
      4277.38      0.89264909    0.0052258311
      4281.66      0.89201074    0.0052292618
      4285.94      0.89260233    0.0052330643
      4290.23      0.89487293    0.0052371526
      4294.52      0.89654913    0.0052420825
      4298.81      0.89677945    0.0052445732
      4303.11      0.89680952    0.0052474585
      4307.42      0.89605326    0.0052506109
      4311.72      0.89207091    0.0052541961
      4316.04      0.88360624    0.0052581192
      4320.35      0.87611473    0.0052001159
      4324.67      0.87248210    0.0052661315
      4329.00      0.87120262    0.0052688326
      4333.33      0.86767894    0.0052718587
      4337.66      0.86639253    0.0052753785
      4342.00      0.86748282    0.0052191001
      4346.34      0.86695206    0.0052208939
      4350.69      0.86664052    0.0052230406
      4355.04      0.86867501    0.0052897799
      4359.39      0.87071953    0.0052928752
      4363.75      0.87584446    0.0052376210
      4368.12      0.88018765    0.0052390469
      4372.48      0.88327268    0.0052409138
      4376.86      0.88355382    0.0052432113
      4381.23      0.88361246    0.0053103973
      4385.61      0.87946919    0.0052555292
      4390.00      0.87534211    0.0052565577
      4394.39      0.86491977    0.0052582349
      4398.79      0.85681215    0.0052604323
      4403.18      0.85190015    0.0052077371
      4407.59      0.84904151    0.0052725015
      4412.00      0.84553064    0.0052734231
      4416.41      0.84417459    0.0052749416
      4420.82      0.84325588    0.0052771817
      4425.25      0.84359527    0.0052243685
      4429.67      0.84448431    0.0052886227
      4434.10      0.84763991    0.0052895375
      4438.54      0.85502877    0.0052911799
      4442.97      0.86673638    0.0052377333
      4447.42      0.88006065    0.0052407528
      4451.86      0.89768218    0.0053038693
      4456.32      0.91780123    0.0053051098
      4460.77      0.94068948    0.0052511069
      4465.24      0.96607236    0.0052537591
      4469.70      0.99322409    0.0052572676
      4474.17       1.0253406    0.0053186249
      4478.65       1.0566202    0.0052641041
      4483.12       1.0897208    0.0052667100
      4487.61       1.1231189    0.0052700345
      4492.09       1.1591222    0.0052753027
      4496.59       1.1890353    0.0052768712
      4501.08       1.2198092    0.0052793771
      4505.58       1.2485011    0.0052825790
      4510.09       1.2765636    0.0052267151
      4514.60       1.3000085    0.0052893669
      4519.12       1.3216340    0.0052918126
      4523.63       1.3446571    0.0052951202
      4528.16       1.3670773    0.0052386030
      4532.69       1.3868582    0.0053013802
      4537.22       1.4090967    0.0053038657
      4541.76       1.4297295    0.0052490997
      4546.30       1.4466385    0.0052500034
      4550.85       1.4630707    0.0053131073
      4555.40       1.4784331    0.0052597888
      4559.95       1.4915211    0.0052599519
      4564.51       1.5040372    0.0052611005
      4569.08       1.5136411    0.0053247257
      4573.65       1.5218455    0.0052699447
      4578.22       1.5288179    0.0052705031
      4582.80       1.5344167    0.0052721696
      4587.38       1.5399604    0.0052797746
      4591.97       1.5448850    0.0052797644
      4596.56       1.5470105    0.0052808709
      4601.16       1.5443988    0.0052892649
      4605.76       1.5439557    0.0052887793
      4610.37       1.5432163    0.0052895015
      4614.98       1.5399282    0.0052378353
      4619.59       1.5374621    0.0052976389
      4624.21       1.5329766    0.0052979567
      4628.84       1.5247036    0.0052457161
      4633.47       1.5139275    0.0053060457
      4638.10       1.5024460    0.0053061357
      4642.74       1.4869963    0.0052536074
      4647.38       1.4692845    0.0053142655
      4652.03       1.4539094    0.0053139738
      4656.68       1.4383149    0.0052611742
      4661.34       1.4223275    0.0052637201
      4666.00       1.4041328    0.0053215527
      4670.67       1.3855426    0.0052685891
      4675.33       1.3663564    0.0052711199
      4680.01       1.3463101    0.0052745414
      4684.69       1.3287845    0.0052756545
      4689.38       1.3090509    0.0052783227
      4694.07       1.2904472    0.0052814221
      4698.76       1.2730746    0.0052826748
      4703.46       1.2562344    0.0052853927
      4708.16       1.2423262    0.0052878986
      4712.87       1.2279932    0.0052892878
      4717.58       1.2163330    0.0052358786
      4722.30       1.2025154    0.0052941948
      4727.03       1.1877199    0.0052959126
      4731.75       1.1712843    0.0052415375
      4736.48       1.1564916    0.0053002151
      4741.22       1.1403825    0.0052476873
      4745.96       1.1227885    0.0052469481
      4750.71       1.1011854    0.0053061844
      4755.46       1.0790180    0.0052525005
      4760.22       1.0579038    0.0052521404
      4764.97       1.0355803    0.0052585135
      4769.74       1.0166026    0.0052571305
      4774.51      0.99942971    0.0053158313
      4779.29      0.98432047    0.0052623820
      4784.07      0.97449669    0.0052616920
      4788.85      0.96937618    0.0052681442
      4793.64      0.96839792    0.0052662271
      4798.43      0.97227068    0.0052663368
      4803.23      0.98290833    0.0052711938
      4808.03      0.99142535    0.0052701609
      4812.84       1.0022584    0.0052762148
      4817.66       1.0094501    0.0052741409
