# starting wavelength =        3918.5200
# ending wavelength =        9726.8300
# O2 telluric scale =        0
# O2 telluric shift =        0
# H2O telluric scale =        0
# H2O telluric shift =        0
      3921.13      0.30836333     0.053858717
      3925.06      0.34144606     0.049479940
      3928.98      0.35294687     0.039711063
      3932.91      0.36042598     0.037173202
      3936.84      0.36527632     0.031055725
      3940.78      0.36893964     0.029560290
      3944.72      0.38302968     0.025795840
      3948.67      0.39019282     0.023984467
      3952.61      0.38974574     0.023254554
      3956.57      0.39156524     0.021534923
      3960.52      0.39284889     0.021025597
      3964.48      0.40497220     0.019976097
      3968.45      0.41488353     0.019583646
      3972.42      0.42600275     0.018914324
      3976.39      0.43910122     0.018587689
      3980.37      0.44338285     0.018138975
      3984.35      0.44870912     0.017853167
      3988.33      0.45858450     0.017541046
      3992.32      0.46706327     0.017282769
      3996.31      0.47568309     0.017257162
      4000.31      0.48094569     0.017231326
      4004.31      0.47819980     0.017205536
      4008.31      0.47505853     0.017179765
      4012.32      0.47717584     0.017384320
      4016.33      0.47894189     0.017358284
      4020.35      0.47803644     0.017332272
      4024.37      0.48121678     0.017306303
      4028.40      0.48686593     0.017280388
      4032.42      0.48978134     0.017254508
      4036.46      0.48953034     0.017466590
      4040.50      0.48805783     0.017440425
      4044.54      0.49412948     0.017414320
      4048.58      0.49469098     0.017388286
      4052.63      0.49673401     0.017362303
      4056.68      0.48749057     0.017336396
      4060.74      0.48358319     0.017310567
      4064.80      0.47558071     0.017284807
      4068.86      0.45857483     0.017505388
      4072.93      0.45929011     0.017479435
      4077.01      0.45692346     0.017453578
      4081.08      0.45451377     0.017427826
      4085.17      0.45556422     0.017402181
      4089.25      0.46350482     0.017376650
      4093.34      0.46240761     0.017351242
      4097.43      0.46979784     0.017325960
      4101.53      0.47933177     0.017300816
      4105.63      0.49612463     0.017275813
      4109.74      0.50556854     0.017250962
      4113.85      0.51450835     0.017226257
      4117.96      0.51996850     0.017447595
      4122.08      0.52796948     0.017419881
      4126.20      0.54183113     0.017392322
      4130.33      0.55003656     0.017364859
      4134.46      0.55111420     0.017337534
      4138.59      0.55420749     0.017310390
      4142.73      0.55653587     0.017283372
      4146.88      0.56639034     0.017256524
      4151.02      0.58093474     0.017229555
      4155.18      0.58341354     0.017202891
      4159.33      0.57831117     0.017438372
      4163.49      0.58155280     0.017411833
      4167.65      0.58793305     0.017385599
      4171.82      0.59099646     0.017359675
      4175.99      0.58839257     0.017334035
      4180.17      0.58561157     0.017308690
      4184.35      0.58297908     0.017283636
      4188.54      0.57914114     0.017258885
      4192.72      0.57513856     0.017234425
      4196.92      0.56937999     0.017483639
      4201.11      0.57196145     0.017454127
      4205.31      0.57236770     0.017424931
      4209.52      0.57326119     0.017395983
      4213.73      0.57607242     0.017367314
      4217.94      0.58352072     0.017339008
      4222.16      0.57921577     0.017310983
      4226.38      0.57854510     0.017283311
      4230.61      0.58828989     0.017538226
      4234.84      0.59016614     0.017510752
      4239.08      0.59597274     0.017483739
      4243.32      0.60573000     0.017457183
      4247.56      0.60579692     0.017431133
      4251.81      0.61025397     0.017405625
      4256.06      0.60373888     0.017380684
      4260.32      0.59590402     0.017356354
      4264.58      0.60407579     0.017624289
      4268.84      0.60421902     0.017593223
      4273.11      0.60143770     0.017562984
      4277.38      0.59203268     0.017532905
      4281.66      0.58730789     0.017503469
      4285.94      0.58941500     0.017474729
      4290.23      0.59294801     0.017446650
      4294.52      0.58485692     0.017725851
      4298.81      0.58453969     0.017698637
      4303.11      0.58132988     0.017672208
      4307.42      0.58315450     0.017646612
      4311.72      0.58726166     0.017621871
      4316.04      0.59850313     0.017598013
      4320.35      0.61088386     0.017575053
      4324.67      0.61646287     0.017855220
      4329.00      0.62268035     0.017822853
      4333.33      0.62755099     0.017791711
      4337.66      0.62819068     0.017761583
      4342.00      0.63092321     0.017732533
      4346.34      0.64467006     0.017704588
      4350.69      0.65940029     0.018014340
      4355.04      0.66221338     0.017988148
      4359.39      0.65523872     0.017963228
      4363.75      0.64522693     0.017939628
      4368.12      0.64231456     0.017917372
      4372.48      0.64483287     0.017896531
      4376.86      0.63821871     0.018189174
      4381.23      0.63552333     0.018156569
      4385.61      0.63074909     0.018125524
      4390.00      0.63282936     0.018096105
      4394.39      0.63384454     0.018068341
      4398.79      0.63292967     0.018042281
      4403.18      0.62562247     0.018055623
      4407.59      0.62586170     0.018016846
      4412.00      0.63595280     0.017979893
      4416.41      0.63337088     0.017944870
      4420.82      0.63444318     0.017911650
      4425.25      0.62729506     0.018251670
      4429.67      0.61921262     0.018221365
      4434.10      0.61149895     0.018193183
      4438.54      0.61910032     0.018167161
      4442.97      0.62521713     0.018143329
      4447.42      0.64023173     0.018503196
      4451.86      0.63901436     0.018462209
      4456.32      0.64421650     0.018424714
      4460.77      0.64627446     0.018389828
      4465.24      0.66145872     0.018357034
      4469.70      0.67397285     0.018327259
      4474.17      0.68714303     0.018716469
      4478.65      0.70188920     0.018692119
      4483.12      0.72035347     0.018671013
      4487.61      0.74091774     0.018653141
      4492.09      0.75604883     0.019017226
      4496.59      0.77037986     0.018978762
      4501.08      0.77364833     0.018550493
      4505.58      0.77808156     0.018520957
      4510.09      0.78517108     0.018494768
      4514.60      0.79725215     0.018471897
      4519.12      0.80157180     0.018452552
      4523.63      0.81369760     0.018822478
      4528.16      0.82648751     0.018781845
      4532.69      0.82588599     0.018356032
      4537.22      0.83999504     0.018325762
      4541.76      0.84937698     0.018299469
      4546.30      0.85521758     0.018276245
      4550.85      0.86006018     0.018257887
      4555.40      0.86333156     0.018243953
      4559.95      0.87235341     0.018198161
      4564.51      0.88153265     0.018164522
      4569.08      0.89238475     0.018135050
      4573.65      0.90579270     0.018109772
      4578.22      0.90627946     0.018088741
      4582.80      0.90472962     0.018072072
      4587.38      0.89829631     0.017638687
      4591.97      0.89968000     0.018005705
      4596.56      0.90741116     0.017974123
      4601.16      0.90332882     0.017947108
      4605.76      0.89572360     0.017924702
      4610.37      0.88986759     0.017906954
      4614.98      0.89378171     0.017485293
      4619.59      0.89180733     0.017449471
      4624.21      0.89813817     0.017815248
      4628.84      0.88348018     0.017787575
      4633.47      0.86918952     0.017764877
      4638.10      0.86359531     0.017747231
      4642.74      0.85014233     0.017330974
      4647.38      0.84055324     0.017295066
      4652.03      0.84225152     0.017657620
      4656.68      0.84034878     0.017630513
      4661.34      0.83077688     0.017608766
      4666.00      0.81764085     0.017215849
      4670.67      0.80926782     0.017175722
      4675.33      0.79824550     0.017140895
      4680.01      0.80120923     0.017501395
      4684.69      0.80461805     0.017476232
      4689.38      0.80440398     0.017456809
      4694.07      0.80956939     0.017058208
      4698.76      0.81466107     0.017020260
      4703.46      0.82534851     0.016987843
      4708.16      0.82631270     0.017347703
      4712.87      0.82711677     0.017325945
      4717.58      0.82086365     0.016941035
      4722.30      0.82241459     0.016900639
      4727.03      0.82842851     0.016866210
      4731.75      0.82555402     0.016837697
      4736.48      0.81757230     0.017198553
      4741.22      0.81631525     0.016822943
      4745.96      0.81206989     0.016780501
      4750.71      0.80334692     0.016744727
      4755.46      0.79400159     0.016715374
      4760.22      0.78615330     0.017072985
      4764.97      0.77261500     0.016703409
      4769.74      0.77076219     0.016661207
      4774.51      0.76560677     0.016625666
      4779.29      0.75681116     0.016596674
      4784.07      0.75308174     0.016256011
      4788.85      0.75412801     0.016583373
      4793.64      0.76079670     0.016541109
      4798.43      0.76416326     0.016505781
      4803.23      0.76350314     0.016477332
      4808.03      0.76225005     0.016140109
      4812.84      0.77073846     0.016459268
      4817.66      0.77534983     0.016418252
      4822.48      0.77720958     0.016384724
      4827.30      0.78223195     0.016044921
      4832.12      0.78762126     0.016026489
      4836.96      0.79468744     0.016336178
      4841.79      0.79723756     0.016298166
      4846.63      0.79870825     0.016267733
      4851.48      0.79989910     0.015933438
      4856.33      0.79494531     0.015918161
      4861.19      0.78861243     0.016213128
      4866.05      0.78077512     0.016178847
      4870.92      0.77712836     0.015842837
      4875.79      0.77733939     0.015824795
      4880.66      0.77934603     0.016129487
      4885.55      0.77481455     0.016091901
      4890.43      0.76649181     0.015754570
      4895.32      0.76734183     0.015734247
      4900.22      0.77007134     0.015721238
      4905.12      0.77399873     0.016006059
      4910.02      0.78403698     0.015667955
      4914.94      0.79676204     0.015645894
      4919.85      0.80978642     0.015631418
      4924.77      0.82474374     0.015920689
      4929.70      0.85003341     0.015582452
      4934.62      0.87365047     0.015559244
      4939.56      0.89664491     0.015543873
      4944.50      0.91098723     0.015536499
      4949.44      0.93187422     0.015497736
      4954.39      0.94874889     0.015473949
      4959.35      0.96427467     0.015458291
      4964.31      0.97402059     0.015450919
      4969.27      0.98465038     0.015413580
      4974.24      0.98238684     0.015389889
      4979.22      0.97454434     0.015374607
      4984.20      0.96785263     0.015367897
      4989.18      0.96069588     0.015329978
      4994.17      0.94724836     0.015307006
      4999.16      0.93065351     0.015292774
      5004.16      0.90791042     0.014963892
      5009.17      0.88112550     0.015246956
      5014.18      0.85968110     0.015225482
      5019.19      0.84161105     0.015212979
      5024.21      0.82391939     0.014881695
      5029.23      0.80292604     0.015164897
      5034.26      0.79106036     0.015145582
      5039.30      0.78009417     0.015135098
      5044.34      0.76958710     0.014799537
      5049.39      0.76352665     0.015083447
      5054.43      0.76228119     0.015067289
      5059.49      0.76436108     0.014750661
      5064.55      0.77250897     0.014720150
      5069.61      0.77577745     0.015005937
      5074.68      0.78611327     0.014993507
      5079.76      0.80440138     0.014669247
      5084.84      0.82047688     0.014642065
      5089.92      0.83639320     0.014930105
      5095.01      0.85439168     0.014620709
      5100.11      0.87014040     0.014588150
      5105.21      0.88275654     0.014869854
      5110.31      0.88760971     0.014574326
      5115.42      0.90319530     0.014536743
      5120.54      0.91351592     0.014509273
      5125.66      0.92501672     0.014795109
      5130.79      0.93033778     0.014488745
      5135.92      0.93074423     0.014457450
      5141.05      0.93201542     0.014435903
      5146.20      0.93317849     0.014442752
      5151.34      0.93436419     0.014406938
      5156.49      0.94192345     0.014381595
      5161.65      0.94835928     0.014397661
      5166.81      0.95702406     0.014357990
      5171.98      0.96275140     0.014329353
      5177.15      0.96806004     0.014056450
      5182.33      0.97048806     0.014310164
      5187.51      0.97265250     0.014278160
      5192.70      0.98193289     0.014003602
      5197.89      0.99272678     0.014263068
      5203.09      0.99769565     0.014228232
      5208.29       1.0005381     0.014204731
      5213.50       1.0202893     0.014216449
      5218.72       1.0298543     0.014179160
      5223.93       1.0437502     0.014153515
      5229.16       1.0507060     0.013887958
      5234.39       1.0557022     0.014130590
      5239.62       1.0641175     0.014103178
      5244.86       1.0721443     0.013837168
      5250.11       1.0814126     0.014082346
      5255.36       1.0940776     0.014053531
      5260.61       1.1079188     0.013787451
      5265.87       1.1222761     0.014034182
      5271.14       1.1260640     0.014004450
      5276.41       1.1366072     0.013738684
      5281.69       1.1415633     0.013986097
      5286.97       1.1472878     0.013707660
      5292.26       1.1533648     0.013690796
      5297.55       1.1598863     0.013937907
      5302.85       1.1595617     0.013660375
      5308.15       1.1650234     0.013643736
      5313.46       1.1773266     0.013638462
      5318.77       1.1767811     0.013613528
      5324.09       1.1797554     0.013597495
      5329.42       1.1750662     0.013592682
      5334.75       1.1738158     0.013566536
      5340.08       1.1754366     0.013551573
      5345.42       1.1738221     0.013548553
      5350.77       1.1687715     0.013521289
      5356.12       1.1729549     0.013507948
      5361.48       1.1773722     0.013506707
      5366.83       1.1623937     0.013476905
      5372.20       1.1519940     0.013465379
      5377.58       1.1561205     0.013198823
      5382.95       1.1515758     0.013432768
      5388.34       1.1377014     0.013423286
      5393.72       1.1301248     0.013153625
      5399.12       1.1187373     0.013388950
      5404.52       1.1124988     0.013382207
      5409.92       1.1046983     0.013362730
      5415.33       1.0969484     0.013346376
      5420.75       1.0967201     0.013090333
      5426.17       1.1004604     0.013318994
      5431.60       1.0992697     0.013306655
      5437.03       1.1042784     0.013045911
      5442.47       1.1106128     0.013276975
      5447.91       1.1125298     0.013268325
      5453.36       1.1155199     0.013002106
      5458.81       1.1252766     0.013236400
      5464.27       1.1262459     0.012985427
      5469.73       1.1248591     0.012959944
      5475.20       1.1373564     0.013198103
      5480.68       1.1532914     0.012940539
      5486.16       1.1586880     0.013170100
      5491.65       1.1634990     0.012926617
      5497.14       1.1668159     0.012897664
      5502.64       1.1675758     0.013131763
      5508.14       1.1760223     0.012880610
      5513.65       1.1737400     0.012857271
      5519.16       1.1717472     0.012868388
      5524.68       1.1729236     0.012837138
      5530.20       1.1685956     0.013068369
      5535.73       1.1563175     0.012821531
      5541.27       1.1486061     0.012796692
      5546.81       1.1365661     0.012810116
      5552.36       1.1200990     0.012777759
      5557.91       1.1052152     0.012759805
      5563.47       1.0891290     0.012762776
      5569.04       1.0750781     0.012737688
      5574.60       1.0590677     0.012751505
      5580.18       1.0524260     0.012719289
      5585.76       1.0481689     0.012492113
      5591.35       1.0413170     0.012704263
      5596.94       1.0325779     0.012680197
      5602.53       1.0293806     0.012692464
      5608.14       1.0243527     0.012661427
      5613.75       1.0174014     0.012437258
      5619.36       1.0103808     0.012645916
      5624.98       1.0000585     0.012624172
      5630.60      0.99010268     0.012633254
      5636.23      0.97478480     0.012605527
      5641.87      0.95385237     0.012385647
      5647.51      0.93601737     0.012589558
      5653.16      0.91061369     0.012364292
      5658.82      0.88215010     0.012575699
      5664.47      0.85538670     0.012344963
      5670.14      0.82813722     0.012337370
      5675.81      0.79848357     0.012534291
      5681.48      0.78074463     0.012314890
      5687.17      0.76590249     0.012518375
      5692.85      0.75027550     0.012294256
      5698.55      0.73680646     0.012504236
      5704.25      0.73685452     0.012275520
      5709.95      0.73687152     0.012269191
      5715.66      0.74401754     0.012258994
      5721.38      0.75649845     0.012248457
      5727.10      0.77824590     0.012449256
      5732.83      0.79306637     0.012229241
      5738.56      0.81067036     0.012230194
      5744.30      0.82947742     0.012211226
      5750.04      0.84492332     0.012208554
      5755.79      0.86047118     0.012194440
      5761.55      0.87853995     0.012188329
      5767.31      0.89213319     0.012178828
      5773.08      0.90326532     0.012169699
      5778.85      0.91323585     0.012165928
      5784.63      0.93094331     0.012154691
      5790.41      0.95133728     0.011938275
      5796.21      0.96304745     0.012140356
      5802.00      0.97320283     0.011928242
      5807.81      0.98520110     0.012129612
      5813.61       1.0029780     0.012132508
      5819.43       1.0192898     0.012132914
      5825.25       1.0412609     0.012136430
      5831.07       1.0677477     0.012141311
      5836.90       1.0799364     0.012143765
      5842.74       1.1061698     0.011934404
      5848.58       1.1122689     0.012152403
      5854.43       1.1141203     0.011935368
      5860.29       1.1191589     0.012146018
      5866.15       1.1207153     0.011927704
      5872.01       1.1243487     0.012132341
      5877.89       1.1213357     0.011912303
      5883.76       1.1175074     0.012112956
      5889.65       1.1214252     0.011895235
      5895.54       1.1302355     0.012095890
      5901.43       1.1377195     0.011878966
      5907.34       1.1419068     0.012074568
      5913.24       1.1520986     0.011856922
      5919.16       1.1582208     0.012049408
      5925.08       1.1582053     0.011832437
      5931.00       1.1619280     0.011812211
      5936.93       1.1667562     0.011805794
      5942.87       1.1677631     0.011783459
      5948.81       1.1643715     0.011780601
      5954.76       1.1697966     0.011761263
      5960.72       1.1505693     0.011759183
      5966.68       1.1481458     0.011738222
      5972.64       1.1379445     0.011737690
      5978.62       1.1206425     0.011719408
      5984.60       1.1057321     0.011721880
      5990.58       1.0938825     0.011704858
      5996.57       1.0821963     0.011708320
      6002.57       1.0776430     0.011513216
      6008.57       1.0751821     0.011697013
      6014.58       1.0597832     0.011503375
      6020.60       1.0624300     0.011685979
