# starting wavelength =        3700.3100
# ending wavelength =        7625.0500
# O2 telluric scale =        0
# O2 telluric shift =        0
# H2O telluric scale =        0
# H2O telluric shift =        0
      3703.98      0.41207035     0.016616593
      3707.68      0.41380311     0.014527005
      3711.39      0.41625911     0.012545056
      3715.10      0.41737863     0.010975057
      3718.81      0.41564962    0.0095352614
      3722.53      0.41375206    0.0086215935
      3726.26      0.41066050    0.0079136181
      3729.98      0.41153167    0.0074619705
      3733.71      0.41218000    0.0070128708
      3737.45      0.41330413    0.0066643466
      3741.18      0.41182370    0.0063376793
      3744.93      0.41517412    0.0061302401
      3748.67      0.41941954    0.0059637832
      3752.42      0.42437559    0.0058169773
      3756.17      0.43096641    0.0056970444
      3759.93      0.43803835    0.0055968984
      3763.69      0.44757606    0.0054793709
      3767.45      0.45957297    0.0054084716
      3771.22      0.46924094    0.0053650318
      3774.99      0.48194836    0.0053791448
      3778.77      0.49555770    0.0053935366
      3782.54      0.51055697    0.0053500498
      3786.33      0.52880903    0.0053641072
      3790.11      0.54817166    0.0053793775
      3793.90      0.57269599    0.0053619386
      3797.70      0.59583573    0.0053770874
      3801.50      0.62186795    0.0053328143
      3805.30      0.64913772    0.0053475941
      3809.10      0.67777877    0.0053633293
      3812.91      0.71351690    0.0053459907
      3816.73      0.74928462    0.0053618081
      3820.54      0.78769089    0.0053168661
      3824.36      0.82560800    0.0053323036
      3828.19      0.86773356    0.0053486129
      3832.02      0.90727636    0.0053313002
      3835.85      0.94850272    0.0053476519
      3839.68      0.98676208    0.0053351769
      3843.52       1.0280075    0.0053181323
      3847.37       1.0659700    0.0053352895
      3851.22       1.1048953    0.0053178515
      3855.07       1.1455283    0.0053347298
      3858.92       1.1851983    0.0053184545
      3862.78       1.2193238    0.0053052660
      3866.64       1.2554370    0.0053235165
      3870.51       1.2887347    0.0053058603
      3874.38       1.3235152    0.0053231852
      3878.26       1.3476538    0.0053067057
      3882.13       1.3696836    0.0053244441
      3886.02       1.3885901    0.0053426331
      3889.90       1.4029712    0.0052954561
      3893.79       1.4153662    0.0053131574
      3897.69       1.4296398    0.0052963021
      3901.59       1.4451896    0.0053154955
      3905.49       1.4566301    0.0052981304
      3909.39       1.4702115    0.0053172680
      3913.30       1.4791120    0.0053373177
      3917.22       1.4765330    0.0053199626
      3921.13       1.4792830    0.0053399403
      3925.06       1.4818647    0.0052908337
      3928.98       1.4843374    0.0053101480
      3932.91       1.4835537    0.0052933311
      3936.84       1.4814906    0.0053143103
      3940.78       1.4809774    0.0052968354
      3944.72       1.4780787    0.0053176050
      3948.67       1.4735180    0.0053398110
      3952.61       1.4669326    0.0053221696
      3956.57       1.4586700    0.0053437834
      3960.52       1.4507979    0.0053272482
      3964.48       1.4413538    0.0053495485
      3968.45       1.4296768    0.0053323005
      3972.42       1.4210687    0.0053553364
      3976.39       1.4094118    0.0053028753
      3980.37       1.3924870    0.0053251583
      3984.35       1.3722990    0.0053081608
      3988.33       1.3514628    0.0053324983
      3992.32       1.3331633    0.0053148780
      3996.31       1.3150987    0.0053383688
      4000.31       1.2995546    0.0053215469
      4004.31       1.2875435    0.0053466049
      4008.31       1.2726283    0.0053290387
      4012.32       1.2532053    0.0053537908
      4016.33       1.2267475    0.0053371759
      4020.35       1.2083920    0.0053630647
      4024.37       1.1887818    0.0053888882
      4028.40       1.1662007    0.0053718253
      4032.42       1.1426386    0.0054003670
      4036.46       1.1289863    0.0053822483
      4040.50       1.1146605    0.0054094637
      4044.54       1.0958752    0.0053923767
      4048.58       1.0795321    0.0054223367
      4052.63       1.0687087    0.0054042224
      4056.68       1.0573927    0.0054328129
      4060.74       1.0489042    0.0054155032
      4064.80       1.0435422    0.0053986851
      4068.86       1.0366877    0.0054291230
      4072.93       1.0329756    0.0054113012
      4077.01       1.0329616    0.0054416671
      4081.08       1.0299997    0.0054247088
      4085.17       1.0245106    0.0054574536
      4089.25       1.0219710    0.0054393454
      4093.34       1.0230037    0.0054711900
      4097.43       1.0181473    0.0054537863
      4101.53       1.0189948    0.0054368689
      4105.63       1.0194343    0.0054203458
      4109.74       1.0163551    0.0054050709
      4113.85       1.0161082    0.0053876258
      4117.96       1.0223651    0.0053704238
      4122.08       1.0295346    0.0053536681
      4126.20       1.0315332    0.0053373917
      4130.33       1.0296597    0.0052742403
      4134.46       1.0337456    0.0053051611
      4138.59       1.0342252    0.0052881608
      4142.73       1.0303758    0.0052714969
      4146.88       1.0296999    0.0052111721
      4151.02       1.0247367    0.0051937125
      4155.18       1.0243223    0.0051765392
      4159.33       1.0215398    0.0051597873
      4163.49       1.0163322    0.0051902857
      4167.65       1.0149022    0.0051739410
      4171.82       1.0105638    0.0051146618
      4175.99       1.0112149    0.0050975054
      4180.17       1.0120254    0.0050807366
      4184.35       1.0148207    0.0050641849
      4188.54       1.0177568    0.0050477200
      4192.72       1.0181212    0.0049892422
      4196.92       1.0233825    0.0050200490
      4201.11       1.0290926    0.0050031203
      4205.31       1.0298982    0.0049865240
      4209.52       1.0314068    0.0049701386
      4213.73       1.0400182    0.0049538480
      4217.94       1.0436937    0.0048963345
      4222.16       1.0460088    0.0048805528
      4226.38       1.0505866    0.0048649637
      4230.61       1.0535343    0.0048495911
      4234.84       1.0581473    0.0048342687
      4239.08       1.0596063    0.0048620854
      4243.32       1.0598899    0.0048460847
      4247.56       1.0539344    0.0047893897
      4251.81       1.0463158    0.0047738722
      4256.06       1.0405762    0.0047584801
      4260.32       1.0326218    0.0047430952
      4264.58       1.0231540    0.0047278972
      4268.84       1.0100078    0.0047128160
      4273.11      0.99227385    0.0046977563
      4277.38      0.97813367    0.0046828423
      4281.66      0.96628453    0.0046290766
      4285.94      0.95230619    0.0046138546
      4290.23      0.93869255    0.0045986741
      4294.52      0.92508851    0.0045836151
      4298.81      0.91043462    0.0045686362
      4303.11      0.89701297    0.0045538159
      4307.42      0.88426923    0.0045792509
      4311.72      0.87136024    0.0045643230
      4316.04      0.85994844    0.0045496618
      4320.35      0.84846249    0.0045349607
      4324.67      0.83756227    0.0044847053
      4329.00      0.82741861    0.0044699244
      4333.33      0.82054804    0.0044551255
      4337.66      0.81501902    0.0044403830
      4342.00      0.80777764    0.0044258011
      4346.34      0.80143156    0.0044112816
      4350.69      0.79634860    0.0043968392
      4355.04      0.79296713    0.0043824156
      4359.39      0.79363372    0.0043680640
      4363.75      0.79598814    0.0043537850
      4368.12      0.79885845    0.0043395255
      4372.48      0.80363094    0.0043253373
      4376.86      0.80903513    0.0043112114
      4381.23      0.81718408    0.0042970986
      4385.61      0.82667012    0.0042830495
      4390.00      0.83924092    0.0042344255
      4394.39      0.85121954    0.0042206343
      4398.79      0.86686368    0.0042068606
      4403.18      0.88578851    0.0041931551
      4407.59      0.90605544    0.0041794904
      4412.00      0.92797889    0.0041658489
      4416.41      0.95294923    0.0041522775
      4420.82      0.97555203    0.0041035711
      4425.25      0.99883197    0.0040901458
      4429.67       1.0254916    0.0040768387
      4434.10       1.0553615    0.0040635714
      4438.54       1.0893994    0.0040503427
      4442.97       1.1232294    0.0040372428
      4447.42       1.1543017    0.0040241069
      4451.86       1.1888326    0.0040110201
      4456.32       1.2242783    0.0039980681
      4460.77       1.2579378    0.0039850922
      4465.24       1.2938066    0.0039721706
      4469.70       1.3294425    0.0039593813
      4474.17       1.3613321    0.0039465760
      4478.65       1.3952765    0.0039338276
      4483.12       1.4295859    0.0039212068
      4487.61       1.4659554    0.0039087273
      4492.09       1.4947692    0.0038617121
      4496.59       1.5194279    0.0038490286
      4501.08       1.5419805    0.0038365315
      4505.58       1.5625387    0.0038239714
      4510.09       1.5836041    0.0038114770
      4514.60       1.6064817    0.0038291601
      4519.12       1.6283245    0.0038167136
      4523.63       1.6482154    0.0038043385
      4528.16       1.6637707    0.0037921155
      4532.69       1.6777443    0.0037800392
      4537.22       1.6937021    0.0037359401
      4541.76       1.7099550    0.0037235419
      4546.30       1.7224723    0.0037113511
      4550.85       1.7339422    0.0036991220
      4555.40       1.7431323    0.0036869823
      4559.95       1.7507235    0.0036750537
      4564.51       1.7576215    0.0036631032
      4569.08       1.7621423    0.0036211494
      4573.65       1.7627912    0.0036095674
      4578.22       1.7578627    0.0035981465
      4582.80       1.7478699    0.0036139593
      4587.38       1.7386767    0.0036019778
      4591.97       1.7274349    0.0035902265
      4596.56       1.7143002    0.0035784755
      4601.16       1.6991480    0.0035374489
      4605.76       1.6806855    0.0035261254
      4610.37       1.6616275    0.0035148786
      4614.98       1.6412862    0.0035037644
      4619.59       1.6180650    0.0034928271
      4624.21       1.5946809    0.0034820947
      4628.84       1.5695127    0.0034671917
      4633.47       1.5390363    0.0034559897
      4638.10       1.5095028    0.0034449938
      4642.74       1.4764619    0.0034341069
      4647.38       1.4413050    0.0034233844
      4652.03       1.4023906    0.0033837621
      4656.68       1.3661761    0.0033727309
      4661.34       1.3249950    0.0033875472
      4666.00       1.2835323    0.0033767750
      4670.67       1.2420387    0.0033662304
      4675.33       1.2013044    0.0033277624
      4680.01       1.1618643    0.0033168458
      4684.69       1.1251754    0.0033061071
      4689.38       1.0898930    0.0032955795
      4694.07       1.0601857    0.0032837119
      4698.76       1.0348991    0.0032727388
      4703.46       1.0115787    0.0032619519
      4708.16      0.99210608    0.0032514288
      4712.87      0.97596441    0.0032411238
      4717.58      0.96259873    0.0032051810
      4722.30      0.95273316    0.0032186537
      4727.03      0.94394419    0.0032081614
      4731.75      0.93600037    0.0031978739
      4736.48      0.92980102    0.0031623281
      4741.22      0.92265210    0.0031526087
      4745.96      0.91546394    0.0031655536
      4750.71      0.90463714    0.0031301134
      4755.46      0.89465717    0.0031202246
      4760.22      0.88540171    0.0031106560
      4764.97      0.87726120    0.0031013714
      4769.74      0.86828748    0.0030887049
      4774.51      0.86132975    0.0030789782
      4779.29      0.85649971    0.0030695449
      4784.07      0.85704786    0.0030604463
      4788.85      0.85838462    0.0030479469
      4793.64      0.86357680    0.0030383754
      4798.43      0.87222922    0.0030291586
      4803.23      0.88335773    0.0029952637
      4808.03      0.89737008    0.0029857500
      4812.84      0.91260080    0.0029985371
      4817.66      0.92953345    0.0029654936
      4822.48      0.94569425    0.0029559571
      4827.30      0.96156918    0.0029466941
      4832.12      0.97720569    0.0029361642
      4836.96      0.98976192    0.0029265768
      4841.79       1.0000944    0.0029173361
      4846.63       1.0083468    0.0028858404
      4851.48       1.0134908    0.0028975949
      4856.33       1.0157558    0.0028883654
      4861.19       1.0161050    0.0028571250
      4866.05       1.0146130    0.0028690351
      4870.92       1.0119231    0.0028597783
      4875.79       1.0088839    0.0028288478
      4880.66       1.0028938    0.0028205019
      4885.55      0.99520065    0.0028316619
      4890.43      0.98681388    0.0028009780
      4895.32      0.97799304    0.0027927686
      4900.22      0.96943706    0.0028038952
      4905.12      0.95831094    0.0027735825
      4910.02      0.94805851    0.0027654281
      4914.94      0.93771179    0.0027549081
      4919.85      0.93069666    0.0027465436
      4924.77      0.92315562    0.0027385714
      4929.70      0.91620294    0.0027280605
      4934.62      0.91091286    0.0027198514
      4939.56      0.90713398    0.0027120988
      4944.50      0.90420298    0.0027016156
      4949.44      0.90131796    0.0026936216
      4954.39      0.90005311    0.0026646093
      4959.35      0.89923325    0.0026755698
      4964.31      0.89958157    0.0026472622
      4969.27      0.89962214    0.0026388945
      4974.24      0.89788479    0.0026499383
      4979.22      0.89725355    0.0026216690
      4984.20      0.89704142    0.0026136419
      4989.18      0.89677159    0.0026047190
      4994.17      0.89706117    0.0025965016
      4999.16      0.89792851    0.0025887963
      5004.16      0.89931469    0.0025796591
      5009.17      0.90239201    0.0025717943
      5014.18      0.90603835    0.0025451624
      5019.19      0.91027306    0.0025550836
      5024.21      0.91779801    0.0025284554
      5029.23      0.92628356    0.0025386264
      5034.26      0.93675062    0.0025120230
      5039.30      0.94742262    0.0025050555
      5044.34      0.95797117    0.0024957615
      5049.39      0.96837610    0.0024887657
      5054.43      0.97909286    0.0024797878
      5059.49      0.99178985    0.0024726946
      5064.55       1.0040803    0.0024661877
      5069.61       1.0147837    0.0024568155
      5074.68       1.0277383    0.0024502398
      5079.76       1.0414482    0.0024411261
      5084.84       1.0543118    0.0024345738
      5089.92       1.0679859    0.0024256487
      5095.01       1.0828209    0.0024190642
      5100.11       1.0970484    0.0023936622
      5105.21       1.1108633    0.0024037646
      5110.31       1.1271848    0.0023786382
      5115.42       1.1459584    0.0023886587
      5120.54       1.1675446    0.0023637449
      5125.66       1.1896704    0.0023561789
      5130.79       1.2116756    0.0023490990
      5135.92       1.2343894    0.0023415889
      5141.05       1.2549607    0.0023345195
      5146.20       1.2773504    0.0023270923
      5151.34       1.3014559    0.0023201441
      5156.49       1.3253745    0.0022969738
      5161.65       1.3501532    0.0023058969
      5166.81       1.3746236    0.0022829115
      5171.98       1.3981237    0.0022918417
      5177.15       1.4200827    0.0022690903
      5182.33       1.4388708    0.0022612919
      5187.51       1.4567770    0.0022554394
      5192.70       1.4720786    0.0022476358
      5197.89       1.4856913    0.0022419554
      5203.09       1.4972391    0.0022342065
      5208.29       1.5091076    0.0022286612
      5213.50       1.5210633    0.0022208904
      5218.72       1.5299662    0.0021987146
      5223.93       1.5367625    0.0022077697
      5229.16       1.5420280    0.0022004883
      5234.39       1.5455244    0.0021948536
      5239.62       1.5479943    0.0021875158
      5244.86       1.5503095    0.0021659379
      5250.11       1.5533816    0.0021747582
      5255.36       1.5532816    0.0021532066
      5260.61       1.5540015    0.0021622170
      5265.87       1.5531349    0.0021406602
      5271.14       1.5512033    0.0021341636
      5276.41       1.5497434    0.0021283421
      5281.69       1.5483336    0.0021217636
      5286.97       1.5465829    0.0021012274
      5292.26       1.5441607    0.0021095619
      5297.55       1.5422750    0.0021032451
      5302.85       1.5399434    0.0020975654
      5308.15       1.5394820    0.0020911811
      5313.46       1.5405761    0.0020710805
      5318.77       1.5430215    0.0020793378
      5324.09       1.5499266    0.0020731888
      5329.42       1.5537260    0.0020531526
      5334.75       1.5576180    0.0020614946
      5340.08       1.5614831    0.0020419718
      5345.42       1.5640526    0.0020355934
      5350.77       1.5681968    0.0020440050
      5356.12       1.5699380    0.0020245903
      5361.48       1.5731166    0.0020184015
      5366.83       1.5753694    0.0019992533
      5372.20       1.5776738    0.0020075902
      5377.58       1.5792048    0.0020015426
      5382.95       1.5819423    0.0019826104
      5388.34       1.5833582    0.0019909360
      5393.72       1.5834524    0.0019850220
      5399.12       1.5838070    0.0019662898
      5404.52       1.5819525    0.0019746339
      5409.92       1.5815643    0.0019558278
      5415.33       1.5817339    0.0019502895
      5420.75       1.5813797    0.0019449677
      5426.17       1.5775066    0.0019400701
      5431.60       1.5700945    0.0019345935
      5437.03       1.5624707    0.0019293269
      5442.47       1.5522792    0.0019114186
      5447.91       1.5408609    0.0019192302
      5453.36       1.5274940    0.0019140045
      5458.81       1.5125440    0.0018964787
      5464.27       1.4977204    0.0018911169
      5469.73       1.4816090    0.0018989697
      5475.20       1.4678594    0.0018818447
      5480.68       1.4540513    0.0018765391
      5486.16       1.4418468    0.0018713970
      5491.65       1.4297383    0.0018793085
      5497.14       1.4170230    0.0018623593
      5502.64       1.4073785    0.0018572437
      5508.14       1.3974068    0.0018522498
      5513.65       1.3884848    0.0018355238
      5519.16       1.3802637    0.0018435029
      5524.68       1.3707784    0.0018385019
      5530.20       1.3616675    0.0018336679
      5535.73       1.3531366    0.0018171502
      5541.27       1.3445871    0.0018125884
      5546.81       1.3342750    0.0018203277
      5552.36       1.3231878    0.0018156040
      5557.91       1.3117043    0.0017993079
      5563.47       1.2993477    0.0017948413
      5569.04       1.2871207    0.0017904782
      5574.60       1.2737543    0.0017981258
      5580.18       1.2607849    0.0017819878
      5585.76       1.2466905    0.0017775986
      5591.35       1.2316516    0.0017732966
      5596.94       1.2161066    0.0017690985
      5602.53       1.1993753    0.0017535300
      5608.14       1.1839505    0.0017492191
      5613.75       1.1679329    0.0017566688
      5619.36       1.1527872    0.0017525131
      5624.98       1.1361521    0.0017375382
      5630.60       1.1192573    0.0017332947
      5636.23       1.1023560    0.0017291281
      5641.87       1.0854395    0.0017250474
      5647.51       1.0698482    0.0017210192
      5653.16       1.0547109    0.0017170644
      5658.82       1.0420530    0.0017139701
      5664.47       1.0293558    0.0017099181
      5670.14       1.0191082    0.0017059236
      5675.81       1.0118614    0.0017020147
      5681.48       1.0075408    0.0016981608
      5687.17       1.0070223    0.0016836583
