# starting wavelength =        3225.0200
# ending wavelength =        10983.000
# O2 telluric scale =        0
# O2 telluric shift =        0
# H2O telluric scale =        0
# H2O telluric shift =        0
      3226.73      0.21033559    0.0087310609
      3229.96      0.20527987    0.0071122291
      3233.19      0.19933274    0.0061124511
      3236.42      0.19390411    0.0055647202
      3239.66      0.18879128    0.0049150555
      3242.90      0.18513045    0.0044122409
      3246.14      0.18135641    0.0039035599
      3249.39      0.17754468    0.0036218554
      3252.64      0.17531681    0.0034635228
      3255.89      0.17277037    0.0032755223
      3259.14      0.17308598    0.0031238380
      3262.40      0.17090356    0.0029807236
      3265.67      0.16797123    0.0028862595
      3268.93      0.16624992    0.0028335761
      3272.20      0.16348774    0.0027609623
      3275.47      0.16102770    0.0026974359
      3278.75      0.16028409    0.0026534271
      3282.03      0.15784929    0.0026048885
      3285.31      0.15762454    0.0025805085
      3288.60      0.15710924    0.0025599136
      3291.88      0.15714934    0.0025400469
      3295.18      0.15846810    0.0025608232
      3298.47      0.16081573    0.0025614743
      3301.77      0.16128458    0.0025823395
      3305.07      0.16128613    0.0025622988
      3308.38      0.16176731    0.0025629779
      3311.69      0.16279505    0.0025838984
      3315.00      0.16324176    0.0025637485
      3318.31      0.16543145    0.0025842827
      3321.63      0.16639412    0.0025854213
      3324.95      0.16783567    0.0025652169
      3328.28      0.16764764    0.0025857531
      3331.61      0.17190213    0.0025868970
      3334.94      0.17417084    0.0025883875
      3338.27      0.17790879    0.0025871905
      3341.61      0.18006440    0.0025882722
      3344.95      0.18503609    0.0026098874
      3348.30      0.18958588    0.0025885962
      3351.65      0.19360706    0.0025896686
      3355.00      0.19720094    0.0026112921
      3358.35      0.20123590    0.0026119651
      3361.71      0.20798403    0.0025909469
      3365.07      0.21280293    0.0026127275
      3368.44      0.21761984    0.0026133003
      3371.81      0.22298811    0.0025922549
      3375.18      0.22902180    0.0026141271
      3378.56      0.23454456    0.0026146448
      3381.94      0.23917341    0.0026154974
      3385.32      0.24192832    0.0026155712
      3388.70      0.24455716    0.0026159391
      3392.09      0.24772250    0.0026375544
      3395.48      0.25043380    0.0026386659
      3398.88      0.25384729    0.0026172685
      3402.28      0.25711524    0.0026387871
      3405.68      0.26153325    0.0026397588
      3409.09      0.26288234    0.0026410806
      3412.49      0.26489391    0.0026400161
      3415.91      0.26666406    0.0026408222
      3419.32      0.26581379    0.0026419693
      3422.74      0.26488209    0.0026644276
      3426.17      0.26513928    0.0026419321
      3429.59      0.26527454    0.0026429139
      3433.02      0.26461114    0.0026657943
      3436.45      0.26420232    0.0026662636
      3439.89      0.26487108    0.0026438530
      3443.33      0.26434712    0.0026672291
      3446.78      0.26487246    0.0026675017
      3450.22      0.26563355    0.0026680918
      3453.67      0.26494296    0.0026910141
      3457.13      0.26512362    0.0026688158
      3460.58      0.26508151    0.0026691874
      3464.04      0.26513572    0.0026698638
      3467.51      0.26465595    0.0026928458
      3470.98      0.26493641    0.0026704556
      3474.45      0.26508635    0.0026708542
      3477.92      0.26629692    0.0026936443
      3481.40      0.26600630    0.0026946159
      3484.88      0.26739333    0.0026959237
      3488.37      0.26742364    0.0026945429
      3491.86      0.26773659    0.0026953008
      3495.35      0.26795947    0.0026963153
      3498.84      0.26798574    0.0027202211
      3502.34      0.26795563    0.0027206844
      3505.84      0.26991966    0.0026969052
      3509.35      0.27142673    0.0026978713
      3512.86      0.27380097    0.0027218127
      3516.37      0.27596960    0.0027222589
      3519.89      0.27808225    0.0027229289
      3523.41      0.27927067    0.0027233253
      3526.93      0.28101830    0.0027234298
      3530.46      0.28272711    0.0027238068
      3533.99      0.28454890    0.0027243800
      3537.53      0.28606172    0.0027484962
      3541.06      0.28758471    0.0027495954
      3544.60      0.28826915    0.0027252785
      3548.15      0.28902471    0.0027490535
      3551.70      0.29127224    0.0027498124
      3555.25      0.29223309    0.0027507370
      3558.80      0.29339230    0.0027519622
      3562.36      0.29410927    0.0027763481
      3565.92      0.29468756    0.0027510612
      3569.49      0.29370532    0.0027518468
      3573.06      0.29402835    0.0027528645
      3576.64      0.29397238    0.0027778311
      3580.21      0.29402398    0.0027782471
      3583.79      0.29277935    0.0027789145
      3587.38      0.29406630    0.0027793411
      3590.96      0.29484273    0.0027793711
      3594.55      0.29472642    0.0027795832
      3598.15      0.29526223    0.0027800536
      3601.75      0.29800261    0.0028052804
      3605.35      0.30059548    0.0028061371
      3608.96      0.30408299    0.0028071689
      3612.56      0.30742753    0.0027813706
      3616.18      0.31049450    0.0028063531
      3619.79      0.31451760    0.0028069404
      3623.41      0.31990691    0.0028077300
      3627.04      0.32424674    0.0028086570
      3630.66      0.32739511    0.0028351664
      3634.29      0.33152272    0.0028355205
      3637.93      0.33518790    0.0028359838
      3641.57      0.33762375    0.0028091548
      3645.21      0.34018913    0.0028099609
      3648.86      0.34179758    0.0028368993
      3652.50      0.34418191    0.0028371343
      3656.16      0.34648206    0.0028375026
      3659.81      0.34675183    0.0028380512
      3663.47      0.34568073    0.0028647451
      3667.14      0.34285728    0.0028655977
      3670.80      0.33888829    0.0028665764
      3674.48      0.33448034    0.0028390284
      3678.15      0.32947821    0.0028654547
      3681.83      0.32309213    0.0028659299
      3685.51      0.31589670    0.0028666085
      3689.20      0.30733256    0.0028673006
      3692.88      0.29819323    0.0028682004
      3696.58      0.28892222    0.0028961343
      3700.27      0.27990415    0.0028964025
      3703.98      0.27022948    0.0028968290
      3707.68      0.25956053    0.0028973446
      3711.39      0.24997017    0.0028980253
      3715.10      0.24259156    0.0028980772
      3718.81      0.23511649    0.0028981077
      3722.53      0.22910846    0.0028982191
      3726.26      0.22339322    0.0028984698
      3729.98      0.21716662    0.0028988585
      3733.71      0.21248387    0.0029269915
      3737.45      0.20915827    0.0029275778
      3741.18      0.20794273    0.0029282281
      3744.93      0.20815988    0.0029289477
      3748.67      0.20915169    0.0029297947
      3752.42      0.21067923    0.0029591509
      3756.17      0.21207229    0.0029593847
      3759.93      0.21344479    0.0029598058
      3763.69      0.21608444    0.0029602290
      3767.45      0.22018743    0.0029607438
      3771.22      0.22510846    0.0029907554
      3774.99      0.23020815    0.0029914160
      3778.77      0.23600454    0.0029612817
      3782.54      0.24311051    0.0029613447
      3786.33      0.25112975    0.0029615851
      3790.11      0.26007409    0.0029618061
      3793.90      0.26933841    0.0029915118
      3797.70      0.27903119    0.0029918838
      3801.50      0.29031896    0.0029922990
      3805.30      0.30123000    0.0029928279
      3809.10      0.31466799    0.0029933756
      3812.91      0.32963973    0.0029940321
      3816.73      0.34554034    0.0030263178
      3820.54      0.36323073    0.0030264096
      3824.36      0.38244891    0.0030265796
      3828.19      0.40419030    0.0030267638
      3832.02      0.42803791    0.0030269839
      3835.85      0.45194082    0.0030273002
      3839.68      0.47647056    0.0030276251
      3843.52      0.49985068    0.0030592957
      3847.37      0.52422494    0.0030597208
      3851.22      0.54800618    0.0030601567
      3855.07      0.57054060    0.0030606431
      3858.92      0.59247135    0.0030611428
      3862.78      0.61389469    0.0030616431
      3866.64      0.63431509    0.0030622895
      3870.51      0.65478327    0.0030961145
      3874.38      0.67461948    0.0030962759
      3878.26      0.69233989    0.0030964257
      3882.13      0.71003790    0.0030965516
      3886.02      0.72578937    0.0030967653
      3889.90      0.74051347    0.0030969712
      3893.79      0.75487137    0.0030972660
      3897.69      0.76979262    0.0031308800
      3901.59      0.78536906    0.0031311394
      3905.49      0.80202200    0.0031314748
      3909.39      0.81929957    0.0031317681
      3913.30      0.83632962    0.0031320352
      3917.22      0.85491785    0.0031323908
      3921.13      0.87469082    0.0031327074
      3925.06      0.89404014    0.0031330587
      3928.98      0.91371570    0.0031713651
      3932.91      0.93107450    0.0032075403
      3936.84      0.94870676    0.0032078346
      3940.78      0.96641444    0.0032082514
      3944.72      0.98537704    0.0032084994
      3948.67       1.0049447    0.0032088756
      3952.61       1.0244619    0.0032091941
      3956.57       1.0459028    0.0032094469
      3960.52       1.0665260    0.0032098186
      3964.48       1.0845432    0.0032101287
      3968.45       1.0991302    0.0032491330
      3972.42       1.1113262    0.0032491554
      3976.39       1.1204598    0.0032492593
      3980.37       1.1269507    0.0032494110
      3984.35       1.1300143    0.0032495218
      3988.33       1.1292539    0.0032496956
      3992.32       1.1269668    0.0032912504
      3996.31       1.1196688    0.0032913656
      4000.31       1.1071961    0.0032914338
      4004.31       1.0920702    0.0032915541
      4008.31       1.0754007    0.0032916934
      4012.32       1.0562837    0.0032917789
      4016.33       1.0375363    0.0032919177
      4020.35       1.0161207    0.0032919601
      4024.37      0.99506150    0.0032919412
      4028.40      0.97434224    0.0032919590
      4032.42      0.95368437    0.0032919085
      4036.46      0.93533726    0.0032918898
      4040.50      0.91551862    0.0032918994
      4044.54      0.89627653    0.0032918575
      4048.58      0.87815808    0.0032918658
      4052.63      0.86113950    0.0032917388
      4056.68      0.84689597    0.0032916623
      4060.74      0.83234308    0.0032916123
      4064.80      0.81924422    0.0032914956
      4068.86      0.80385973    0.0032914692
      4072.93      0.78572490    0.0032529902
      4077.01      0.76944536    0.0032529338
      4081.08      0.75429901    0.0032528484
      4085.17      0.73947933    0.0032528023
      4089.25      0.72384949    0.0032528286
      4093.34      0.70947681    0.0032527974
      4097.43      0.69483671    0.0032528364
      4101.53      0.68068747    0.0032528762
      4105.63      0.66873276    0.0032529107
      4109.74      0.65686883    0.0032530272
      4113.85      0.64713548    0.0032531090
      4117.96      0.63771714    0.0032532786
      4122.08      0.63000960    0.0032535287
      4126.20      0.62428779    0.0032537730
      4130.33      0.62111566    0.0032146259
      4134.46      0.61926507    0.0032142683
      4138.59      0.61697747    0.0032138915
      4142.73      0.61289043    0.0032136843
      4146.88      0.60976559    0.0032134535
      4151.02      0.60714882    0.0032132403
      4155.18      0.60655011    0.0032131697
      4159.33      0.60771557    0.0032539154
      4163.49      0.60931019    0.0032538884
      4167.65      0.61159926    0.0032539799
      4171.82      0.61456285    0.0032169032
      4175.99      0.61718274    0.0032161769
      4180.17      0.62007553    0.0032156082
      4184.35      0.62379716    0.0032149755
      4188.54      0.62736252    0.0032145552
      4192.72      0.63046801    0.0032141539
      4196.92      0.63472950    0.0032137961
      4201.11      0.63799883    0.0032136643
      4205.31      0.64138780    0.0032135601
      4209.52      0.64479798    0.0031776585
      4213.73      0.64768424    0.0032173655
      4217.94      0.64877637    0.0032164762
      4222.16      0.64973115    0.0032156391
      4226.38      0.65227716    0.0032150560
      4230.61      0.65372031    0.0032145408
      4234.84      0.65677198    0.0032141331
      4239.08      0.66031729    0.0031779511
      4243.32      0.66321567    0.0031777980
      4247.56      0.66588675    0.0031778034
      4251.81      0.66854243    0.0031779887
      4256.06      0.67135152    0.0032160673
      4260.32      0.67560301    0.0032152697
      4264.58      0.67841277    0.0032146060
      4268.84      0.68198871    0.0031782080
      4273.11      0.68259655    0.0031779290
      4277.38      0.68487970    0.0031778544
      4281.66      0.68604212    0.0031779165
      4285.94      0.68644942    0.0031782028
      4290.23      0.68627610    0.0031786590
      4294.52      0.68459453    0.0031786284
      4298.81      0.68243643    0.0031781239
      4303.11      0.68027485    0.0031778604
      4307.42      0.67666499    0.0031777604
      4311.72      0.67240666    0.0031779226
      4316.04      0.66729415    0.0031782912
      4320.35      0.66182183    0.0031407591
      4324.67      0.65709653    0.0031781333
      4329.00      0.65237138    0.0031777724
      4333.33      0.64827017    0.0031776083
      4337.66      0.64423328    0.0031777417
      4342.00      0.64043097    0.0031413422
      4346.34      0.63490455    0.0031405137
      4350.69      0.62964880    0.0031398541
      4355.04      0.62383825    0.0031775116
      4359.39      0.61973004    0.0031774051
      4363.75      0.61571454    0.0031418073
      4368.12      0.61245515    0.0031407285
      4372.48      0.61086574    0.0031399187
      4376.86      0.61075384    0.0031393703
      4381.23      0.61160214    0.0031771671
      4385.61      0.61280047    0.0031419429
      4390.00      0.61646080    0.0031406472
      4394.39      0.62122536    0.0031397441
      4398.79      0.62737147    0.0031391563
      4403.18      0.63748232    0.0031053713
      4407.59      0.64992149    0.0031416198
      4412.00      0.66472403    0.0031402871
      4416.41      0.68182172    0.0031393127
      4420.82      0.70056645    0.0031387737
      4425.25      0.72265833    0.0031050561
      4429.67      0.74552614    0.0031409117
      4434.10      0.76996598    0.0031396014
      4438.54      0.79551454    0.0031387297
      4442.97      0.82218155    0.0031047510
      4447.42      0.85060555    0.0031047245
      4451.86      0.88050188    0.0031398234
      4456.32      0.91047280    0.0031387369
      4460.77      0.93985557    0.0031045465
      4465.24      0.96916755    0.0031043258
      4469.70      0.99891118    0.0031046159
      4474.17       1.0296114    0.0031385998
      4478.65       1.0604225    0.0031042227
      4483.12       1.0923057    0.0031039998
      4487.61       1.1246827    0.0031042119
      4492.09       1.1569112    0.0031046902
      4496.59       1.1904938    0.0031038773
      4501.08       1.2247122    0.0031036213
      4505.58       1.2600158    0.0031037813
      4510.09       1.2983345    0.0030688416
      4514.60       1.3374883    0.0031034949
      4519.12       1.3764572    0.0031032322
      4523.63       1.4163849    0.0031034825
      4528.16       1.4580731    0.0030682805
      4532.69       1.4990302    0.0031029572
      4537.22       1.5382970    0.0031027491
      4541.76       1.5777914    0.0030686673
      4546.30       1.6149557    0.0030675700
      4550.85       1.6512601    0.0031023922
      4555.40       1.6856096    0.0030692478
      4559.95       1.7161897    0.0030677456
      4564.51       1.7436242    0.0030668262
      4569.08       1.7681769    0.0031019123
      4573.65       1.7866389    0.0030680363
      4578.22       1.8012695    0.0030668005
      4582.80       1.8108252    0.0030662174
      4587.38       1.8152021    0.0030683234
      4591.97       1.8173670    0.0030667875
      4596.56       1.8165153    0.0030659094
      4601.16       1.8094052    0.0030685108
      4605.76       1.7988883    0.0030667296
      4610.37       1.7856470    0.0030656579
      4614.98       1.7687353    0.0030338872
      4619.59       1.7497630    0.0030666838
      4624.21       1.7303526    0.0030654106
      4628.84       1.7088022    0.0030333982
      4633.47       1.6844534    0.0030664821
      4638.10       1.6581523    0.0030651101
      4642.74       1.6300997    0.0030330231
      4647.38       1.6016917    0.0030662833
      4652.03       1.5727304    0.0030647257
      4656.68       1.5430700    0.0030325738
      4661.34       1.5136716    0.0030326877
      4666.00       1.4837857    0.0030643058
      4670.67       1.4525124    0.0030321518
      4675.33       1.4211985    0.0030323007
      4680.01       1.3905661    0.0030323018
      4684.69       1.3596299    0.0030316503
      4689.38       1.3276198    0.0030319035
      4694.07       1.2956154    0.0030317817
      4698.76       1.2655092    0.0030312469
      4703.46       1.2370223    0.0030315630
      4708.16       1.2103991    0.0030311553
      4712.87       1.1837678    0.0030307366
      4717.58       1.1575803    0.0029986464
      4722.30       1.1320703    0.0030305579
      4727.03       1.1090053    0.0030303649
      4731.75       1.0883973    0.0029978162
      4736.48       1.0700675    0.0030299352
      4741.22       1.0548574    0.0029985077
      4745.96       1.0426222    0.0029969772
      4750.71       1.0333807    0.0030294227
      4755.46       1.0276222    0.0029974265
      4760.22       1.0229037    0.0029961539
      4764.97       1.0220760    0.0029982081
      4769.74       1.0232639    0.0029963821
      4774.51       1.0263008    0.0030285413
      4779.29       1.0303289    0.0029968338
      4784.07       1.0356414    0.0029954468
      4788.85       1.0423777    0.0029976492
      4793.64       1.0498222    0.0029955957
      4798.43       1.0576486    0.0029947075
      4803.23       1.0645819    0.0029960660
      4808.03       1.0705926    0.0029945608
      4812.84       1.0742655    0.0029966434
      4817.66       1.0770044    0.0029945819
      4822.48       1.0776031    0.0029642542
      4827.30       1.0780886    0.0029949329
      4832.12       1.0790402    0.0029935157
      4836.96       1.0796166    0.0029638990
      4841.79       1.0821634    0.0029934604
      4846.63       1.0884118    0.0029633523
      4851.48       1.0961445    0.0029935260
      4856.33       1.1103201    0.0029630148
      4861.19       1.1274317    0.0029937510
      4866.05       1.1527222    0.0029627432
      4870.92       1.1811288    0.0029625409
      4875.79       1.2174010    0.0029625498
      4880.66       1.2526994    0.0029621224
      4885.55       1.2970189    0.0029625461
      4890.43       1.3368875    0.0029616275
      4895.32       1.3743592    0.0029621385
      4900.22       1.4137910    0.0029613070
      4905.12       1.4429061    0.0029615286
      4910.02       1.4693600    0.0029610324
      4914.94       1.4839964    0.0029609737
      4919.85       1.4922547    0.0029607603
      4924.77       1.4906734    0.0029604446
      4929.70       1.4800262    0.0029295255
      4934.62       1.4635011    0.0029599870
      4939.56       1.4392774    0.0029293021
      4944.50       1.4093848    0.0029595674
      4949.44       1.3753215    0.0029289998
      4954.39       1.3387844    0.0029590885
