# starting wavelength =        3205.0500
# ending wavelength =        10184.300
# O2 telluric scale =        0
# O2 telluric shift =        0
# H2O telluric scale =        0
# H2O telluric shift =        0
      3207.44     0.038159156     0.012893481
      3210.64     0.044678667     0.010517333
      3213.85     0.050715152    0.0090612105
      3217.07     0.054279719    0.0082648555
      3220.28     0.058069174    0.0073209515
      3223.51     0.058879019    0.0065900408
      3226.73     0.060344634    0.0058530750
      3229.96     0.063790240    0.0054441574
      3233.19     0.065713902    0.0052145656
      3236.42     0.069400440    0.0049401591
      3239.66     0.074080181    0.0046773755
      3242.90     0.073040662    0.0045104320
      3246.14     0.077758177    0.0043700011
      3249.39     0.080936450    0.0042919485
      3252.64     0.080940419    0.0041830540
      3255.89     0.083095993    0.0041040008
      3259.14     0.082334594    0.0040222637
      3262.40     0.082919493    0.0039481848
      3265.67     0.083603531    0.0039112183
      3268.93     0.083196656    0.0038784646
      3272.20     0.083094275    0.0039075450
      3275.47     0.084856592    0.0039067002
      3278.75     0.084218318    0.0038736798
      3282.03     0.085648842    0.0039028854
      3285.31     0.085937468    0.0039021577
      3288.60     0.084496700    0.0038994825
      3291.88     0.083543433    0.0038982021
      3295.18     0.081407017    0.0038975901
      3298.47     0.079666574    0.0038946926
      3301.77     0.079780511    0.0038935029
      3305.07     0.080657191    0.0039240363
      3308.38     0.079810228    0.0039222259
      3311.69     0.079659408    0.0038887734
      3315.00     0.078789962    0.0039191229
      3318.31     0.075663264    0.0039174323
      3321.63     0.075764608    0.0039166396
      3324.95     0.075125432    0.0039142938
      3328.28     0.075812901    0.0039125546
      3331.61     0.075288621    0.0039434402
      3334.94     0.075975183    0.0039094286
      3338.27     0.077324963    0.0039395836
      3341.61     0.078700975    0.0039385172
      3344.95     0.081273316    0.0039046334
      3348.30     0.087279093    0.0039346873
      3351.65     0.090308742    0.0039335735
      3355.00     0.096161641    0.0039330284
      3358.35     0.099494657    0.0039298126
      3361.71      0.10492426    0.0039285814
      3365.07      0.11166015    0.0039605376
      3368.44      0.11619010    0.0039586740
      3371.81      0.11942446    0.0039235798
      3375.18      0.12501016    0.0039557433
      3378.56      0.13095308    0.0039536920
      3381.94      0.13458864    0.0039185129
      3385.32      0.14022201    0.0039509535
      3388.70      0.14490087    0.0039487852
      3392.09      0.14866769    0.0039471581
      3395.48      0.15304534    0.0039462400
      3398.88      0.15553777    0.0039439239
      3402.28      0.15970904    0.0039421291
      3405.68      0.15994582    0.0039740821
      3409.09      0.15825150    0.0039733483
      3412.49      0.15929458    0.0039703012
      3415.91      0.16212165    0.0039688005
      3419.32      0.16351442    0.0039678648
      3422.74      0.16375562    0.0040007215
      3426.17      0.16464009    0.0039636490
      3429.59      0.16556289    0.0039623991
      3433.02      0.16560186    0.0039958871
      3436.45      0.16832779    0.0039938601
      3439.89      0.16871744    0.0039570877
      3443.33      0.16921995    0.0039912322
      3446.78      0.17043098    0.0039889466
      3450.22      0.17268370    0.0039871376
      3453.67      0.17349243    0.0040205113
      3457.13      0.17609171    0.0039841782
      3460.58      0.17932182    0.0039820354
      3464.04      0.18030400    0.0040150145
      3467.51      0.18194232    0.0040138600
      3470.98      0.18538254    0.0040131516
      3474.45      0.18792240    0.0040098410
      3477.92      0.18903715    0.0040082448
      3481.40      0.19047846    0.0040071296
      3484.88      0.19066430    0.0040064361
      3488.37      0.19338164    0.0040399958
      3491.86      0.19403252    0.0040013885
      3495.35      0.19281791    0.0040003116
      3498.84      0.19235196    0.0040350952
      3502.34      0.19322424    0.0040331235
      3505.84      0.19422526    0.0040315641
      3509.35      0.19385061    0.0040306013
      3512.86      0.19369598    0.0040281667
      3516.37      0.19136956    0.0040261228
      3519.89      0.19255011    0.0040608457
      3523.41      0.19442434    0.0040596676
      3526.93      0.19507450    0.0040589555
      3530.46      0.19567721    0.0040192434
      3533.99      0.19694465    0.0040537604
      3537.53      0.19967086    0.0040523991
      3541.06      0.20079071    0.0040514706
      3544.60      0.20133760    0.0040874370
      3548.15      0.20430597    0.0040856106
      3551.70      0.20788282    0.0040451937
      3555.25      0.20937180    0.0040440763
      3558.80      0.20993483    0.0040805692
      3562.36      0.21321763    0.0040785097
      3565.92      0.21319387    0.0040767802
      3569.49      0.21322321    0.0041135297
      3573.06      0.21338599    0.0040738211
      3576.64      0.21488574    0.0040715476
      3580.21      0.21472265    0.0040696569
      3583.79      0.21428533    0.0041060157
      3587.38      0.21169188    0.0041047259
      3590.96      0.21139927    0.0041037292
      3594.55      0.20888233    0.0041031844
      3598.15      0.20666404    0.0040985669
      3601.75      0.20726027    0.0040970232
      3605.35      0.20671335    0.0040957747
      3608.96      0.20560230    0.0041349198
      3612.56      0.20528650    0.0041325650
      3616.18      0.20340341    0.0041305741
      3619.79      0.20303908    0.0041289293
      3623.41      0.20357879    0.0041675797
      3627.04      0.20484508    0.0041259686
      3630.66      0.20594289    0.0041236196
      3634.29      0.20596984    0.0041216026
      3637.93      0.20852606    0.0041596783
      3641.57      0.20948704    0.0041580949
      3645.21      0.21084135    0.0041568496
      3648.86      0.21360292    0.0041559055
      3652.50      0.21421769    0.0041957238
      3656.16      0.21459176    0.0041938163
      3659.81      0.21605826    0.0041920545
      3663.47      0.21552678    0.0041472154
      3667.14      0.21430663    0.0041893369
      3670.80      0.21391805    0.0041868694
      3674.48      0.21248635    0.0041846089
      3678.15      0.20895335    0.0041825597
      3681.83      0.20698497    0.0041808809
      3685.51      0.20177504    0.0042213514
      3689.20      0.19754704    0.0042201013
      3692.88      0.19298465    0.0042189375
      3696.58      0.18863130    0.0042180454
      3700.27      0.18154770    0.0042594019
      3703.98      0.17401429    0.0042575267
      3707.68      0.16866259    0.0042098824
      3711.39      0.15994116    0.0042083100
      3715.10      0.15344387    0.0042070565
      3718.81      0.14878904    0.0042506314
      3722.53      0.14481979    0.0042482343
      3726.26      0.14051696    0.0042460879
      3729.98      0.13576192    0.0042441902
      3733.71      0.13165915    0.0042868687
      3737.45      0.12907200    0.0042852822
      3741.18      0.12761414    0.0042838346
      3744.93      0.12677539    0.0042825810
      3748.67      0.12665780    0.0042814650
      3752.42      0.12632087    0.0043261060
      3756.17      0.12551271    0.0043240520
      3759.93      0.12453309    0.0043220005
      3763.69      0.12284803    0.0043202639
      3767.45      0.12305461    0.0043185944
      3771.22      0.12370730    0.0043642281
      3774.99      0.12256258    0.0043629300
      3778.77      0.12552055    0.0043616939
      3782.54      0.13017298    0.0043108316
      3786.33      0.13313442    0.0043085035
      3790.11      0.13716407    0.0043064547
      3793.90      0.14441336    0.0043514273
      3797.70      0.15058114    0.0043495324
      3801.50      0.15882241    0.0043478495
      3805.30      0.17215873    0.0043462129
      3809.10      0.18647902    0.0043446560
      3812.91      0.20013956    0.0043951008
      3816.73      0.21629685    0.0043925422
      3820.54      0.23276244    0.0043901679
      3824.36      0.25213621    0.0043879355
      3828.19      0.27324034    0.0043857650
      3832.02      0.29330110    0.0043837392
      3835.85      0.31349229    0.0044315826
      3839.68      0.33359346    0.0044297094
      3843.52      0.35368018    0.0044278383
      3847.37      0.37479151    0.0044259394
      3851.22      0.39522800    0.0044243122
      3855.07      0.41478675    0.0044226608
      3858.92      0.43237219    0.0044770628
      3862.78      0.44993231    0.0044745318
      3866.64      0.46452564    0.0044720664
      3870.51      0.47684304    0.0044697407
      3874.38      0.48827417    0.0044673766
      3878.26      0.50048242    0.0045232023
      3882.13      0.51166911    0.0045218598
      3886.02      0.52394831    0.0045741700
      3889.90      0.53456368    0.0045718452
      3893.79      0.54472545    0.0045698066
      3897.69      0.55390962    0.0045677315
      3901.59      0.56426018    0.0045656209
      3905.49      0.57629946    0.0045637535
      3909.39      0.58598636    0.0045618444
      3913.30      0.59701018    0.0045599150
      3917.22      0.60759424    0.0045579221
      3921.13      0.61790451    0.0044961959
      3925.06      0.62826132    0.0044943265
      3928.98      0.63458708    0.0044924336
      3932.91      0.64107165    0.0044905845
      3936.84      0.64553439    0.0044888099
      3940.78      0.65285060    0.0044868927
      3944.72      0.65928258    0.0044850090
      3948.67      0.66691591    0.0044830744
      3952.61      0.67606241    0.0044811969
      3956.57      0.68661252    0.0044793559
      3960.52      0.69696043    0.0044774483
      3964.48      0.70621959    0.0044755978
      3968.45      0.71509759    0.0044736452
      3972.42      0.72567278    0.0044716137
      3976.39      0.73798890    0.0044696256
      3980.37      0.74831074    0.0044675731
      3984.35      0.75882290    0.0044655941
      3988.33      0.76841562    0.0044636500
      3992.32      0.77553670    0.0044616524
      3996.31      0.78055554    0.0044595238
      4000.31      0.77978558    0.0044573379
      4004.31      0.77595303    0.0044552273
      4008.31      0.77143267    0.0044531492
      4012.32      0.76416748    0.0044510038
      4016.33      0.75722631    0.0044489343
      4020.35      0.74618488    0.0044467434
      4024.37      0.73560466    0.0044444713
      4028.40      0.72125394    0.0044422534
      4032.42      0.70735232    0.0044399563
      4036.46      0.69329827    0.0044377042
      4040.50      0.67774503    0.0044354962
      4044.54      0.66486166    0.0044332244
      4048.58      0.65409610    0.0044310238
      4052.63      0.64254449    0.0044286499
      4056.68      0.63130977    0.0044263471
      4060.74      0.62204044    0.0044240957
      4064.80      0.61158620    0.0044217791
      4068.86      0.60147891    0.0044195219
      4072.93      0.58891954    0.0043651740
      4077.01      0.57427387    0.0043629521
      4081.08      0.56287126    0.0043606994
      4085.17      0.55155129    0.0043585068
      4089.25      0.53945506    0.0043564128
      4093.34      0.52791842    0.0043542496
      4097.43      0.51599900    0.0043521847
      4101.53      0.50418173    0.0043501243
      4105.63      0.49139334    0.0043480644
      4109.74      0.48225038    0.0043461192
      4113.85      0.47389550    0.0043441322
      4117.96      0.46466815    0.0043422694
      4122.08      0.45824208    0.0043405170
      4126.20      0.45160999    0.0043387614
      4130.33      0.44542352    0.0042839959
      4134.46      0.44230749    0.0042814772
      4138.59      0.43892083    0.0042789379
      4142.73      0.43486955    0.0042766300
      4146.88      0.43125467    0.0042742954
      4151.02      0.42847600    0.0042719895
      4155.18      0.42634707    0.0042698779
      4159.33      0.42660245    0.0043214768
      4163.49      0.42836933    0.0043194108
      4167.65      0.43067766    0.0043175058
      4171.82      0.43292257    0.0042658107
      4175.99      0.43510230    0.0042628575
      4180.17      0.43739895    0.0042601176
      4184.35      0.44291936    0.0042572996
      4188.54      0.44866149    0.0042547685
      4192.72      0.45531787    0.0042522672
      4196.92      0.45879048    0.0042498293
      4201.11      0.46226655    0.0042476968
      4205.31      0.46525300    0.0042456040
      4209.52      0.46869721    0.0041957635
      4213.73      0.47256218    0.0042457552
      4217.94      0.47401014    0.0042426461
      4222.16      0.47439787    0.0042396054
      4226.38      0.47429016    0.0042369076
      4230.61      0.47295079    0.0042343059
      4234.84      0.47245545    0.0042318526
      4239.08      0.47428967    0.0041818448
      4243.32      0.47428223    0.0041797488
      4247.56      0.47533398    0.0041778827
      4251.81      0.47578515    0.0041762548
      4256.06      0.47493781    0.0042239139
      4260.32      0.47770826    0.0042209868
      4264.58      0.48245612    0.0042182330
      4268.84      0.48693702    0.0041681522
      4273.11      0.48998285    0.0041659359
      4277.38      0.49196064    0.0041639917
      4281.66      0.49417777    0.0041622311
      4285.94      0.49733093    0.0041607679
      4290.23      0.49994148    0.0041595316
      4294.52      0.50154927    0.0041567507
      4298.81      0.50167160    0.0041542682
      4303.11      0.50149433    0.0041521075
      4307.42      0.49953278    0.0041501655
      4311.72      0.49775733    0.0041485683
      4316.04      0.49799074    0.0041472450
      4320.35      0.49775603    0.0040960471
      4324.67      0.49521660    0.0041425505
      4329.00      0.49188409    0.0041402912
      4333.33      0.48729826    0.0041382938
      4337.66      0.48303203    0.0041366913
      4342.00      0.48046490    0.0040871740
      4346.34      0.47695036    0.0040842877
      4350.69      0.47308921    0.0040816867
      4355.04      0.46781396    0.0041284405
      4359.39      0.46428855    0.0041265488
      4363.75      0.45973527    0.0040781517
      4368.12      0.45677896    0.0040750279
      4372.48      0.45386355    0.0040722583
      4376.86      0.45028088    0.0040698320
      4381.23      0.44761133    0.0041166680
      4385.61      0.44589722    0.0040688926
      4390.00      0.44555492    0.0040655135
      4394.39      0.44829050    0.0040626490
      4398.79      0.45092276    0.0040601967
      4403.18      0.45491748    0.0040144143
      4407.59      0.45924440    0.0040591658
      4412.00      0.46514028    0.0040557682
      4416.41      0.47443596    0.0040528360
      4420.82      0.48617941    0.0040504715
      4425.25      0.49968313    0.0040049037
      4429.67      0.51435428    0.0040490718
      4434.10      0.53208799    0.0040457290
      4438.54      0.55251501    0.0040429567
      4442.97      0.57456814    0.0039971544
      4447.42      0.59754653    0.0039954963
      4451.86      0.62272493    0.0040386168
      4456.32      0.64888628    0.0040355877
      4460.77      0.67531130    0.0039896181
      4465.24      0.70237659    0.0039877290
      4469.70      0.72990112    0.0039864998
      4474.17      0.75878676    0.0040281150
      4478.65      0.78690775    0.0039820078
      4483.12      0.81516714    0.0039801363
      4487.61      0.84346507    0.0039788247
      4492.09      0.87181760    0.0039770672
      4496.59      0.89929747    0.0039744510
      4501.08      0.92658162    0.0039725532
      4505.58      0.95209627    0.0039711986
      4510.09      0.97808153    0.0039245584
      4514.60       1.0047911    0.0039669273
      4519.12       1.0318666    0.0039650392
      4523.63       1.0605023    0.0039638083
      4528.16       1.0917199    0.0039169411
      4532.69       1.1216595    0.0039592834
      4537.22       1.1507857    0.0039574829
      4541.76       1.1798769    0.0039121180
      4546.30       1.2083140    0.0039092112
      4550.85       1.2351501    0.0039516832
      4555.40       1.2618516    0.0039075864
      4559.95       1.2851298    0.0039041788
      4564.51       1.3066166    0.0039015171
      4569.08       1.3288465    0.0039442697
      4573.65       1.3478477    0.0038993372
      4578.22       1.3649992    0.0038962870
      4582.80       1.3780340    0.0038940695
      4587.38       1.3888842    0.0038945336
      4591.97       1.3951034    0.0038911181
      4596.56       1.3994729    0.0038885412
      4601.16       1.4007406    0.0038896472
      4605.76       1.3991582    0.0038859358
      4610.37       1.3963337    0.0038831273
      4614.98       1.3899353    0.0038410956
      4619.59       1.3779518    0.0038808117
      4624.21       1.3632893    0.0038777632
      4628.84       1.3458590    0.0038354939
      4633.47       1.3273161    0.0038755341
      4638.10       1.3058022    0.0038723738
      4642.74       1.2820538    0.0038300789
      4647.38       1.2546231    0.0038703035
      4652.03       1.2293361    0.0038669227
      4656.68       1.2051161    0.0038246058
      4661.34       1.1811203    0.0038233650
      4666.00       1.1575065    0.0038614702
      4670.67       1.1343218    0.0038192246
      4675.33       1.1117465    0.0038180207
      4680.01       1.0898528    0.0038159713
      4684.69       1.0693782    0.0038137748
      4689.38       1.0490581    0.0038127265
      4694.07       1.0285551    0.0038105280
      4698.76       1.0092204    0.0038084955
      4703.46      0.98978159    0.0038075357
      4708.16      0.97103030    0.0038049946
      4712.87      0.95307320    0.0038031203
      4717.58      0.93571828    0.0037611883
      4722.30      0.91788072    0.0037995395
      4727.03      0.89905819    0.0037979615
      4731.75      0.87894095    0.0037555185
      4736.48      0.85870881    0.0037940935
      4741.22      0.83956397    0.0037530989
      4745.96      0.82335555    0.0037498772
      4750.71      0.80833065    0.0037888268
      4755.46      0.79578654    0.0037471840
      4760.22      0.78563489    0.0037442976
      4764.97      0.77645371    0.0037449232
      4769.74      0.77140799    0.0037413546
      4774.51      0.76893638    0.0037798858
      4779.29      0.77011139    0.0037387093
      4784.07      0.77162688    0.0037357029
      4788.85      0.77740844    0.0037365350
      4793.64      0.78241481    0.0037327053
      4798.43      0.78848371    0.0037303353
      4803.23      0.79648374    0.0037301286
      4808.03      0.80270670    0.0037269971
      4812.84      0.80768869    0.0037277029
      4817.66      0.81088059    0.0037238879
      4822.48      0.81236001    0.0036846295
      4827.30      0.81283235    0.0037211066
      4832.12      0.81402129    0.0037182051
      4836.96      0.81433583    0.0036798879
      4841.79      0.81551854    0.0037150464
      4846.63      0.81697217    0.0036761586
      4851.48      0.81981663    0.0037120548
      4856.33      0.82560199    0.0036727076
      4861.19      0.83416458    0.0037092790
      4866.05      0.84859010    0.0036693569
      4870.92      0.86568182    0.0036679059
      4875.79      0.88682331    0.0036661209
      4880.66      0.90977202    0.0036643987
      4885.55      0.93832515    0.0036631368
      4890.43      0.96722001    0.0036608151
      4895.32      0.99525526    0.0036602627
      4900.22       1.0260518    0.0036574649
      4905.12       1.0513540    0.0036565617
      4910.02       1.0766333    0.0036541896
      4914.94       1.0942123    0.0036529470
      4919.85       1.1092404    0.0036509347
      4924.77       1.1173548    0.0036493823
