# starting wavelength =        3314.8800
# ending wavelength =        10463.800
# O2 telluric scale =        0
# O2 telluric shift =        0
# H2O telluric scale =        0
# H2O telluric shift =        0
      3315.00      0.31122643     0.030905169
      3318.31      0.30821623     0.025052333
      3321.63      0.30505537     0.021310689
      3324.95      0.30604197     0.018421278
      3328.28      0.30701264     0.016809916
      3331.61      0.30836940     0.014934731
      3334.94      0.31118708     0.013093387
      3338.27      0.31450795     0.012040198
      3341.61      0.31740411     0.011218004
      3344.95      0.31970487     0.010744816
      3348.30      0.32525960     0.010187921
      3351.65      0.33146161    0.0097357003
      3355.00      0.33581225    0.0093335032
      3358.35      0.33872779    0.0090400907
      3361.71      0.34370623    0.0087864097
      3365.07      0.34891689    0.0086471552
      3368.44      0.35496205    0.0084434452
      3371.81      0.36133859    0.0083158367
      3375.18      0.36717730    0.0081552935
      3378.56      0.37472027    0.0080078189
      3381.94      0.37969865    0.0080434760
      3385.32      0.38960204    0.0080109269
      3388.70      0.39748282    0.0079225831
      3392.09      0.40409917    0.0079574650
      3395.48      0.41216011    0.0079249767
      3398.88      0.41989047    0.0078935674
      3402.28      0.42563600    0.0078723909
      3405.68      0.43069201    0.0078399230
      3409.09      0.43609686    0.0078082903
      3412.49      0.44041935    0.0078433860
      3415.91      0.44409508    0.0077554412
      3419.32      0.44770540    0.0077237593
      3422.74      0.44970571    0.0077593701
      3426.17      0.45052407    0.0077263848
      3429.59      0.45114604    0.0076401102
      3433.02      0.45288426    0.0076763696
      3436.45      0.45210324    0.0076431897
      3439.89      0.45176403    0.0076109912
      3443.33      0.45207797    0.0075942734
      3446.78      0.45071698    0.0075608875
      3450.22      0.44708047    0.0075284395
      3453.67      0.44454446    0.0075636262
      3457.13      0.44191690    0.0075326736
      3460.58      0.43939596    0.0074470555
      3464.04      0.43587893    0.0074811893
      3467.51      0.43217031    0.0074499939
      3470.98      0.43212619    0.0074194632
      3474.45      0.43070802    0.0073998562
      3477.92      0.42903893    0.0073682663
      3481.40      0.42817673    0.0073376152
      3484.88      0.42705555    0.0073736082
      3488.37      0.42735827    0.0073415744
      3491.86      0.42659482    0.0072568416
      3495.35      0.42687748    0.0072943421
      3498.84      0.42511521    0.0072618090
      3502.34      0.42465674    0.0072301427
      3505.84      0.42487474    0.0071992894
      3509.35      0.42525772    0.0072347117
      3512.86      0.42445029    0.0071515453
      3516.37      0.42606243    0.0071201700
      3519.89      0.42622189    0.0071545481
      3523.41      0.42687972    0.0071243476
      3526.93      0.42918178    0.0070948331
      3530.46      0.43190250    0.0070758475
      3533.99      0.43376620    0.0070452362
      3537.53      0.43706524    0.0070152041
      3541.06      0.43957905    0.0069858850
      3544.60      0.44266226    0.0070209636
      3548.15      0.44569934    0.0069903281
      3551.70      0.45059206    0.0069074250
      3555.25      0.45230616    0.0069447490
      3558.80      0.45468106    0.0069135029
      3562.36      0.45830865    0.0068830626
      3565.92      0.46116132    0.0068530996
      3569.49      0.46182550    0.0068881607
      3573.06      0.46269471    0.0068078456
      3576.64      0.46499071    0.0067773901
      3580.21      0.46599795    0.0067474903
      3583.79      0.46598809    0.0067815202
      3587.38      0.46448451    0.0067525883
      3590.96      0.46203117    0.0067240528
      3594.55      0.46004166    0.0066962030
      3598.15      0.45697366    0.0066766436
      3601.75      0.45022530    0.0066476518
      3605.35      0.44576760    0.0066190383
      3608.96      0.44060207    0.0066556685
      3612.56      0.43469284    0.0066258164
      3616.18      0.43256129    0.0065964699
      3619.79      0.42991557    0.0065676586
      3623.41      0.42760369    0.0066029142
      3627.04      0.42636959    0.0065240037
      3630.66      0.42807757    0.0064945478
      3634.29      0.42919313    0.0064655456
      3637.93      0.43082838    0.0064996989
      3641.57      0.43362245    0.0064713427
      3645.21      0.43708830    0.0064434881
      3648.86      0.44204688    0.0064161121
      3652.50      0.44663004    0.0063891196
      3656.16      0.45037384    0.0064229958
      3659.81      0.45219925    0.0063421028
      3663.47      0.45737698    0.0063145516
      3667.14      0.46055090    0.0062872525
      3670.80      0.46146664    0.0063235102
      3674.48      0.45993963    0.0062950062
      3678.15      0.45600560    0.0062668564
      3681.83      0.44886242    0.0062392461
      3685.51      0.44014003    0.0062742602
      3689.20      0.42797123    0.0062470603
      3692.88      0.41454646    0.0062201696
      3696.58      0.40278218    0.0061936972
      3700.27      0.39045710    0.0061143615
      3703.98      0.37655250    0.0061481784
      3707.68      0.36015060    0.0061211063
      3711.39      0.34649140    0.0060942938
      3715.10      0.33466017    0.0060678127
      3718.81      0.32375876    0.0061050122
      3722.53      0.31305148    0.0060772989
      3726.26      0.30039996    0.0060499553
      3729.98      0.28839730    0.0060230024
      3733.71      0.27995606    0.0059963143
      3737.45      0.27263865    0.0060318884
      3741.18      0.26862734    0.0060054160
      3744.93      0.26726942    0.0059794002
      3748.67      0.26719823    0.0059536236
      3752.42      0.26378079    0.0059280693
      3756.17      0.26028144    0.0059101672
      3759.93      0.25862181    0.0058837395
      3763.69      0.25690639    0.0058577196
      3767.45      0.25929209    0.0058318345
      3771.22      0.26142620    0.0058062028
      3774.99      0.26284655    0.0057807947
      3778.77      0.26565016    0.0058183620
      3782.54      0.26890416    0.0057919834
      3786.33      0.27330723    0.0057658096
      3790.11      0.27919729    0.0057399677
      3793.90      0.28149285    0.0057142978
      3797.70      0.28936022    0.0057497534
      3801.50      0.29361654    0.0057242303
      3805.30      0.30271710    0.0056990144
      3809.10      0.31531541    0.0056739586
      3812.91      0.32981785    0.0056491860
      3816.73      0.34736054    0.0056245704
      3820.54      0.36578857    0.0056624188
      3824.36      0.38808845    0.0056368870
      3828.19      0.41499004    0.0056114020
      3832.02      0.44789332    0.0055863191
      3835.85      0.48440908    0.0055614011
      3839.68      0.52326388    0.0055366267
      3843.52      0.55857634    0.0055732479
      3847.37      0.59443042    0.0055484898
      3851.22      0.62885439    0.0055240959
      3855.07      0.66507454    0.0054996685
      3858.92      0.70430841    0.0054755080
      3862.78      0.74308731    0.0054515744
      3866.64      0.78097888    0.0054277399
      3870.51      0.81727626    0.0054667525
      3874.38      0.85135281    0.0054420912
      3878.26      0.88225655    0.0054176745
      3882.13      0.91067825    0.0053933341
      3886.02      0.93192706    0.0053692535
      3889.90      0.95165802    0.0053452940
      3893.79      0.96966486    0.0053215481
      3897.69      0.98659270    0.0053588128
      3901.59       1.0016723    0.0053350147
      3905.49       1.0160234    0.0053114423
      3909.39       1.0317162    0.0052878255
      3913.30       1.0447853    0.0052645220
      3917.22       1.0553264    0.0052413377
      3921.13       1.0664469    0.0052182372
      3925.06       1.0764738    0.0052495752
      3928.98       1.0857161    0.0052888936
      3932.91       1.0904249    0.0052656671
      3936.84       1.0902139    0.0052425065
      3940.78       1.0883989    0.0052195759
      3944.72       1.0904113    0.0051967130
      3948.67       1.0922708    0.0051738825
      3952.61       1.0942165    0.0051512237
      3956.57       1.0989221    0.0051287185
      3960.52       1.1038167    0.0051062241
      3964.48       1.1095732    0.0051484187
      3968.45       1.1164237    0.0051257214
      3972.42       1.1246227    0.0051029804
      3976.39       1.1346571    0.0050804489
      3980.37       1.1473971    0.0050581042
      3984.35       1.1609119    0.0050910815
      3988.33       1.1758038    0.0050687462
      3992.32       1.1894508    0.0050467329
      3996.31       1.2022155    0.0050244792
      4000.31       1.2109393    0.0050025510
      4004.31       1.2240247    0.0049806686
      4008.31       1.2326222    0.0050236896
      4012.32       1.2393923    0.0050019049
      4016.33       1.2392685    0.0049801815
      4020.35       1.2361879    0.0049586976
      4024.37       1.2310077    0.0049370714
      4028.40       1.2228036    0.0049717150
      4032.42       1.2119614    0.0049499230
      4036.46       1.1978232    0.0049282898
      4040.50       1.1814055    0.0049068382
      4044.54       1.1636443    0.0048854349
      4048.58       1.1474541    0.0048642117
      4052.63       1.1298874    0.0048429335
      4056.68       1.1113061    0.0048218452
      4060.74       1.0947273    0.0048009384
      4064.80       1.0762334    0.0047800978
      4068.86       1.0589120    0.0047594153
      4072.93       1.0401987    0.0046784775
      4077.01       1.0178630    0.0046583155
      4081.08      0.99931200    0.0046382387
      4085.17      0.97981519    0.0046183539
      4089.25      0.96062095    0.0045986832
      4093.34      0.94185820    0.0045790522
      4097.43      0.92314002    0.0045596508
      4101.53      0.90796173    0.0045403450
      4105.63      0.89544400    0.0045211792
      4109.74      0.88222379    0.0045022385
      4113.85      0.87126375    0.0044833691
      4117.96      0.86444366    0.0044647527
      4122.08      0.86069993    0.0044463506
      4126.20      0.85813020    0.0044280548
      4130.33      0.85842570    0.0043518811
      4134.46      0.85777912    0.0043332713
      4138.59      0.85858918    0.0043147566
      4142.73      0.85516292    0.0042965906
      4146.88      0.85364228    0.0042785122
      4151.02      0.84848412    0.0042605730
      4155.18      0.84253011    0.0042429424
      4159.33      0.83544922    0.0042747392
      4163.49      0.83044011    0.0042572169
      4167.65      0.82737745    0.0042399571
      4171.82      0.82276407    0.0041702761
      4175.99      0.81858798    0.0041524236
      4180.17      0.81910336    0.0041348867
      4184.35      0.82019363    0.0041173990
      4188.54      0.82287675    0.0041003051
      4192.72      0.82839137    0.0040833553
      4196.92      0.83580731    0.0040665772
      4201.11      0.84379181    0.0040502014
      4205.31      0.85075752    0.0040339718
      4209.52      0.86097340    0.0039691249
      4213.73      0.87008997    0.0039989278
      4217.94      0.87866289    0.0039821189
      4222.16      0.88595666    0.0039654901
      4226.38      0.89398933    0.0039492942
      4230.61      0.89727097    0.0039333010
      4234.84      0.90054702    0.0039175502
      4239.08      0.90185536    0.0038547355
      4243.32      0.90232896    0.0038397192
      4247.56      0.90234372    0.0038250126
      4251.81      0.90160795    0.0038106383
      4256.06      0.89841488    0.0038379732
      4260.32      0.89780283    0.0038224997
      4264.58      0.89798453    0.0038072996
      4268.84      0.89895343    0.0037465249
      4273.11      0.90232099    0.0037321886
      4277.38      0.90591828    0.0037182128
      4281.66      0.90841809    0.0037045059
      4285.94      0.91395920    0.0036911573
      4290.23      0.92115897    0.0036781166
      4294.52      0.93146626    0.0036579320
      4298.81      0.93338638    0.0036440487
      4303.11      0.93550826    0.0036305629
      4307.42      0.93369735    0.0036173733
      4311.72      0.92869550    0.0036045804
      4316.04      0.92264878    0.0035921297
      4320.35      0.91628944    0.0035339428
      4324.67      0.90703329    0.0035602517
      4329.00      0.90071630    0.0035473632
      4333.33      0.89438450    0.0035347950
      4337.66      0.88646064    0.0035226616
      4342.00      0.88196505    0.0034673184
      4346.34      0.87832143    0.0034544564
      4350.69      0.87452002    0.0034419419
      4355.04      0.87040560    0.0034684697
      4359.39      0.86586643    0.0034566594
      4363.75      0.86021014    0.0034036012
      4368.12      0.85863031    0.0033911106
      4372.48      0.85731677    0.0033790163
      4376.86      0.85460860    0.0033673124
      4381.23      0.84691009    0.0033939503
      4385.61      0.84079620    0.0033427097
      4390.00      0.83301623    0.0033305675
      4394.39      0.82781737    0.0033189586
      4398.79      0.82236751    0.0033077873
      4403.18      0.81775396    0.0032592885
      4407.59      0.81420992    0.0032844252
      4412.00      0.81469113    0.0032728429
      4416.41      0.81777012    0.0032617297
      4420.82      0.82152320    0.0032511804
      4425.25      0.82921776    0.0032040468
      4429.67      0.83948664    0.0032288361
      4434.10      0.85202721    0.0032178520
      4438.54      0.86820936    0.0032074279
      4442.97      0.88725155    0.0031610560
      4447.42      0.90806362    0.0031518145
      4451.86      0.93498193    0.0031759297
      4456.32      0.96606463    0.0031657446
      4460.77      0.99984497    0.0031201758
      4465.24       1.0338291    0.0031111866
      4469.70       1.0697388    0.0031028043
      4474.17       1.1087333    0.0031259297
      4478.65       1.1501602    0.0030811615
      4483.12       1.1903622    0.0030726064
      4487.61       1.2297157    0.0030645931
      4492.09       1.2689715    0.0030528970
      4496.59       1.3069108    0.0030441083
      4501.08       1.3438841    0.0030359620
      4505.58       1.3793194    0.0030283241
      4510.09       1.4143826    0.0029847425
      4514.60       1.4456101    0.0030089777
      4519.12       1.4746845    0.0030012654
      4523.63       1.5049828    0.0029941431
      4528.16       1.5373816    0.0029512222
      4532.69       1.5652387    0.0029756415
      4537.22       1.5946281    0.0029684135
      4541.76       1.6247832    0.0029272627
      4546.30       1.6520675    0.0029194813
      4550.85       1.6778317    0.0029442138
      4555.40       1.7000215    0.0029046206
      4559.95       1.7218250    0.0028967898
      4564.51       1.7441786    0.0028896061
      4569.08       1.7624568    0.0029147863
      4573.65       1.7765064    0.0028753428
      4578.22       1.7889236    0.0028681887
      4582.80       1.8001833    0.0028617380
      4587.38       1.8099541    0.0028550130
      4591.97       1.8144822    0.0028479124
      4596.56       1.8134498    0.0028415177
      4601.16       1.8079534    0.0028357136
      4605.76       1.8056593    0.0028287125
      4610.37       1.8027217    0.0028224613
      4614.98       1.8012046    0.0027868517
      4619.59       1.7913686    0.0028106362
      4624.21       1.7796365    0.0028045256
      4628.84       1.7660734    0.0027692710
      4633.47       1.7508699    0.0027935247
      4638.10       1.7317506    0.0027876421
      4642.74       1.7084163    0.0027528849
      4647.38       1.6846233    0.0027775168
      4652.03       1.6630587    0.0027717866
      4656.68       1.6373334    0.0027375172
      4661.34       1.6109440    0.0027335447
      4666.00       1.5851174    0.0027569868
      4670.67       1.5581671    0.0027232535
      4675.33       1.5316991    0.0027196114
      4680.01       1.4987379    0.0027141284
      4684.69       1.4700623    0.0027099876
      4689.38       1.4447167    0.0027067493
      4694.07       1.4211122    0.0027016051
      4698.76       1.3988049    0.0026978778
      4703.46       1.3778883    0.0026949961
      4708.16       1.3554137    0.0026900484
      4712.87       1.3355512    0.0026867270
      4717.58       1.3157351    0.0026547824
      4722.30       1.2977423    0.0026795706
      4727.03       1.2749016    0.0026767510
      4731.75       1.2489285    0.0026448740
      4736.48       1.2238671    0.0026701175
      4741.22       1.1975146    0.0026395564
      4745.96       1.1715790    0.0026359864
      4750.71       1.1439474    0.0026617998
      4755.46       1.1159667    0.0026311877
      4760.22       1.0888840    0.0026281381
      4764.97       1.0616977    0.0026271964
      4769.74       1.0388045    0.0026238688
      4774.51       1.0215568    0.0026499317
      4779.29       1.0081854    0.0026203102
      4784.07      0.99942478    0.0026176587
      4788.85       1.0002445    0.0026175803
      4793.64       1.0029325    0.0026145506
      4798.43       1.0128033    0.0026126241
      4803.23       1.0296341    0.0026122336
      4808.03       1.0414126    0.0026099701
      4812.84       1.0581917    0.0026105155
      4817.66       1.0669297    0.0026079696
      4822.48       1.0745913    0.0025807760
      4827.30       1.0813944    0.0026067578
      4832.12       1.0850844    0.0026050562
      4836.96       1.0842689    0.0025788501
      4841.79       1.0826312    0.0026041913
      4846.63       1.0774895    0.0025778114
      4851.48       1.0732047    0.0026039290
      4856.33       1.0711745    0.0025774455
      4861.19       1.0684555    0.0026043001
      4866.05       1.0718848    0.0025776258
      4870.92       1.0785648    0.0025777526
      4875.79       1.0907998    0.0025783602
      4880.66       1.1115052    0.0025784839
      4885.55       1.1370577    0.0025797428
      4890.43       1.1679190    0.0025796311
      4895.32       1.1999881    0.0025808432
      4900.22       1.2379479    0.0025814101
      4905.12       1.2738539    0.0025825607
      4910.02       1.3128947    0.0025837063
      4914.94       1.3478601    0.0025848032
      4919.85       1.3820821    0.0025864804
      4924.77       1.4129305    0.0025875415
      4929.70       1.4406295    0.0025623099
      4934.62       1.4644220    0.0025908139
      4939.56       1.4826814    0.0025659814
      4944.50       1.4970169    0.0025945865
      4949.44       1.4992721    0.0025700465
      4954.39       1.4949759    0.0025987757
      4959.35       1.4804298    0.0025746391
      4964.31       1.4584879    0.0026035614
      4969.27       1.4273488    0.0025796280
      4974.24       1.3912010    0.0026087039
      4979.22       1.3480385    0.0025850364
      4984.20       1.3066500    0.0025865162
      4989.18       1.2574017    0.0025909148
      4994.17       1.2136499    0.0025925163
      4999.16       1.1658200    0.0025971499
      5004.16       1.1250871    0.0025749753
      5009.17       1.0889873    0.0026038287
      5014.18       1.0626167    0.0025818554
      5019.19       1.0406332    0.0026109707
      5024.21       1.0282819    0.0025891541
      5029.23       1.0228497    0.0026184399
      5034.26       1.0276329    0.0025968781
      5039.30       1.0386209    0.0026263623
      5044.34       1.0529863    0.0026051269
      5049.39       1.0738054    0.0026347386
      5054.43       1.0950521    0.0026136932
      5059.49       1.1197949    0.0026434676
      5064.55       1.1455648    0.0026228129
      5069.61       1.1728052    0.0026285972
      5074.68       1.1995143    0.0026323653
      5079.76       1.2264392    0.0026381548
      5084.84       1.2505153    0.0026423874
      5089.92       1.2723135    0.0026482528
