# starting wavelength =        3394.4700
# ending wavelength =        9726.8300
# O2 telluric scale =        0
# O2 telluric shift =        0
# H2O telluric scale =        0
# H2O telluric shift =        0
      3395.48    -0.014128725     0.031951387
      3398.88   -0.0087001617     0.026961184
      3402.28    0.0021410225     0.023097855
      3405.68     0.011627023     0.020937591
      3409.09     0.018661582     0.018412517
      3412.49     0.022691803     0.015931493
      3415.91     0.025761215     0.014518422
      3419.32     0.034993797     0.013417779
      3422.74     0.042711091     0.012785510
      3426.17     0.051541263     0.012058590
      3429.59     0.057654549     0.011479311
      3433.02     0.068301619     0.010944469
      3436.45     0.075041433     0.010586978
      3439.89     0.074513499     0.010285055
      3443.33     0.075079600     0.010116723
      3446.78     0.083504022    0.0098822576
      3450.22     0.088151994    0.0096749545
      3453.67     0.090237675    0.0095487139
      3457.13     0.094623786    0.0093879692
      3460.58     0.092460892    0.0093086025
      3464.04     0.094947210    0.0093011672
      3467.51     0.093105945    0.0092913424
      3470.98     0.089392009    0.0092824572
      3474.45     0.088758443    0.0092742921
      3477.92     0.084164664    0.0093373087
      3481.40     0.078955627    0.0093276584
      3484.88     0.073541444    0.0092480551
      3488.37     0.068308318    0.0093130548
      3491.86     0.067332882    0.0093026640
      3495.35     0.066955057    0.0092929651
      3498.84     0.064191837    0.0093565007
      3502.34     0.064184340    0.0093481250
      3505.84     0.060243511    0.0092682349
      3509.35     0.058762788    0.0092584107
      3512.86     0.057425649    0.0093214600
      3516.37     0.052443616    0.0093128869
      3519.89     0.050563976    0.0093049518
      3523.41     0.051591017    0.0093693646
      3526.93     0.050866251    0.0092865330
      3530.46     0.047963630    0.0092777404
      3533.99     0.044142692    0.0093450515
      3537.53     0.043042023    0.0093347147
      3541.06     0.042588291    0.0093250197
      3544.60     0.047438183    0.0093159608
      3548.15     0.047244422    0.0093825006
      3551.70     0.048355197    0.0093007855
      3555.25     0.054200480    0.0092907355
      3558.80     0.059869928    0.0093558638
      3562.36     0.057152617    0.0093468824
      3565.92     0.061148959    0.0093384659
      3569.49     0.074480336    0.0093305873
      3573.06     0.080054299    0.0093972845
      3576.64     0.084965786    0.0093116695
      3580.21     0.092414513    0.0093027094
      3583.79     0.093198281    0.0092942923
      3587.38     0.095289979    0.0093630020
      3590.96     0.095455607    0.0093530059
      3594.55     0.099867256    0.0093435348
      3598.15     0.093736277    0.0093345644
      3601.75     0.093298683    0.0094034309
      3605.35     0.092767158    0.0093192863
      3608.96     0.088088836    0.0093092453
      3612.56     0.091832079    0.0093768139
      3616.18     0.089966952    0.0093676163
      3619.79     0.088150498    0.0093588619
      3623.41     0.089548803    0.0093505436
      3627.04     0.087331116    0.0094218324
      3630.66     0.085939730    0.0094118365
      3634.29     0.081560999    0.0094022693
      3637.93     0.082947951    0.0093931142
      3641.57     0.079026747    0.0093055562
      3645.21     0.072626433    0.0093782770
      3648.86     0.067506173    0.0093679384
      3652.50     0.063802175    0.0093579909
      3656.16     0.059754893    0.0093484275
      3659.81     0.055920807    0.0094190973
      3663.47     0.055231242    0.0094102308
      3667.14     0.057470836    0.0094017295
      3670.80     0.061089041    0.0093935951
      3674.48     0.059975371    0.0094665020
      3678.15     0.062084195    0.0094567542
      3681.83     0.066523797    0.0094474001
      3685.51     0.073799030    0.0094384312
      3689.20     0.075183587    0.0094341369
      3692.88     0.078171689    0.0094235099
      3696.58     0.080695697    0.0094132211
      3700.27     0.078144793    0.0094032522
      3703.98     0.076709348    0.0093935874
      3707.68     0.077470983    0.0094671812
      3711.39     0.072696528    0.0094580372
      3715.10     0.073001817    0.0094491696
      3718.81     0.067987766    0.0094405722
      3722.53     0.069945744    0.0094322465
      3726.26     0.073711192    0.0095091699
      3729.98     0.075585230    0.0094991217
      3733.71     0.073249875    0.0094893948
      3737.45     0.066623659    0.0094799669
      3741.18     0.063824725    0.0094708115
      3744.93     0.060246109    0.0095484351
      3748.67     0.055756199    0.0095397252
      3752.42     0.046502155    0.0095312537
      3756.17     0.043535041    0.0095229852
      3759.93     0.037645243    0.0095149086
      3763.69     0.029063195    0.0095933134
      3767.45     0.021647633    0.0095836828
      3771.22     0.020418679    0.0095742420
      3774.99     0.017213800    0.0095649767
      3778.77     0.013652645    0.0095558756
      3782.54     0.011476078    0.0096373630
      3786.33     0.011401311    0.0096285182
      3790.11     0.014179239    0.0096198138
      3793.90     0.015557506    0.0096112604
      3797.70     0.022343396    0.0096028239
      3801.50     0.024744931    0.0095945101
      3805.30     0.029233342    0.0096757043
      3809.10     0.037595909    0.0096659622
      3812.91     0.040115129    0.0096563805
      3816.73     0.045885174    0.0096469597
      3820.54     0.054988637    0.0096377034
      3824.36     0.061725939    0.0096286240
      3828.19     0.067051662    0.0097141721
      3832.02     0.065319788    0.0097051798
      3835.85     0.065907627    0.0096962981
      3839.68     0.071339711    0.0096874902
      3843.52     0.078640413    0.0096787631
      3847.37     0.084904568    0.0096701060
      3851.22     0.088724890    0.0097576046
      3855.07     0.099227854    0.0097477197
      3858.92      0.10427559    0.0097379304
      3862.78      0.11229587    0.0097282276
      3866.64      0.11554511    0.0097186038
      3870.51      0.12632482    0.0097090520
      3874.38      0.13114236    0.0096993796
      3878.26      0.13764433    0.0097887733
      3882.13      0.14239304    0.0097792611
      3886.02      0.14622466    0.0097698584
      3889.90      0.14832110    0.0097605398
      3893.79      0.15067163    0.0097512876
      3897.69      0.14896978    0.0097420931
      3901.59      0.15326594    0.0097329145
      3905.49      0.15533559    0.0098319496
      3909.39      0.15225622    0.0099238707
      3913.30      0.14755592    0.0099145503
      3917.22      0.14556568    0.0099052079
      3921.13      0.14521480    0.0098958343
      3925.06      0.14605263    0.0098864383
      3928.98      0.14958163    0.0098770315
      3932.91      0.15919323    0.0098675737
      3936.84      0.16231420    0.0099675973
      3940.78      0.16425253    0.0099575523
      3944.72      0.16839080    0.0099475506
      3948.67      0.16813557    0.0099375964
      3952.61      0.17225257    0.0099276997
      3956.57      0.16990744    0.0099178886
      3960.52      0.17954213     0.010022275
      3964.48      0.17700051     0.010012779
      3968.45      0.18151985     0.010003021
      3972.42      0.18026403     0.010106747
      3976.39      0.17930498     0.010096862
      3980.37      0.17951468     0.010087007
      3984.35      0.18005578     0.010077172
      3988.33      0.18488245     0.010067372
      3992.32      0.18645561     0.010057603
      3996.31      0.18464978     0.010168453
      4000.31      0.18783690     0.010158216
      4004.31      0.18640921     0.010147982
      4008.31      0.18553721     0.010137699
      4012.32      0.18503472     0.010251073
      4016.33      0.18465005     0.010241312
      4020.35      0.18277301     0.010231615
      4024.37      0.17309966     0.010221974
      4028.40      0.16808973     0.010335722
      4032.42      0.16342839     0.010324975
      4036.46      0.16628495     0.010314353
      4040.50      0.17205372     0.010303825
      4044.54      0.17387756     0.010293363
      4048.58      0.17927124     0.010282974
      4052.63      0.17636219     0.010272589
      4056.68      0.17596208     0.010139899
      4060.74      0.17483319     0.010129720
      4064.80      0.17343582     0.010119547
      4068.86      0.17214041     0.010109400
      4072.93      0.17333866     0.010099293
      4077.01      0.16886784     0.010089240
      4081.08      0.16370732     0.010079268
      4085.17      0.16448663     0.010069391
      4089.25      0.16384831     0.010059644
      4093.34      0.16218251     0.010050061
      4097.43      0.16105276     0.010040680
      4101.53      0.15382036     0.010031544
      4105.63      0.15466239     0.010022702
      4109.74      0.15419695    0.0098908403
      4113.85      0.16700672    0.0098801509
      4117.96      0.16970003    0.0098695756
      4122.08      0.17049349    0.0098591572
      4126.20      0.17491079    0.0098489184
      4130.33      0.17234993    0.0098388456
      4134.46      0.16964025    0.0098289666
      4138.59      0.16617124    0.0099419912
      4142.73      0.16166903    0.0099324176
      4146.88      0.15687548    0.0099230960
      4151.02      0.14926125    0.0097985614
      4155.18      0.14175615    0.0097871337
      4159.33      0.13427875    0.0097759640
      4163.49      0.12720559    0.0097650224
      4167.65      0.12013241    0.0097543512
      4171.82      0.11540109    0.0097439780
      4175.99      0.11604643    0.0097336562
      4180.17      0.11805470    0.0097237872
      4184.35      0.11904993    0.0097143531
      4188.54      0.12384384    0.0095948877
      4192.72      0.13359789    0.0097032531
      4196.92      0.13775616    0.0096917100
      4201.11      0.14551760    0.0096805232
      4205.31      0.15724766    0.0096697173
      4209.52      0.16140274    0.0096592634
      4213.73      0.16686463    0.0096491947
      4217.94      0.17577375    0.0095297175
      4222.16      0.18047536    0.0095206024
      4226.38      0.18281840    0.0095119139
      4230.61      0.18145392    0.0095036806
      4234.84      0.17651119    0.0096054299
      4239.08      0.17264238    0.0095943025
      4243.32      0.16911936    0.0095837156
      4247.56      0.17081985    0.0094648559
      4251.81      0.17381872    0.0094556735
      4256.06      0.17732995    0.0094471450
      4260.32      0.17421351    0.0094390400
      4264.58      0.17272125    0.0094315416
      4268.84      0.17607780    0.0094246774
      4273.11      0.17411530    0.0094108134
      4277.38      0.17859458    0.0094011413
      4281.66      0.18771696    0.0093921227
      4285.94      0.18839134    0.0093837816
      4290.23      0.19222460    0.0093761419
      4294.52      0.19450009    0.0092573498
      4298.81      0.19906299    0.0092469811
      4303.11      0.19953091    0.0093470409
      4307.42      0.19567322    0.0093379478
      4311.72      0.19142569    0.0093296411
      4316.04      0.19002552    0.0093219257
      4320.35      0.18685656    0.0092036385
      4324.67      0.18334754    0.0091933529
      4329.00      0.18429388    0.0091839333
      4333.33      0.18111381    0.0092844173
      4337.66      0.17923469    0.0092766509
      4342.00      0.17818660    0.0091612073
      4346.34      0.17757458    0.0091505124
      4350.69      0.17892815    0.0091407007
      4355.04      0.17399241    0.0091317965
      4359.39      0.17634599    0.0091302171
      4363.75      0.18064639    0.0091181590
      4368.12      0.17426810    0.0091070876
      4372.48      0.17447694    0.0090969965
      4376.86      0.17646264    0.0090879350
      4381.23      0.17258656    0.0090863120
      4385.61      0.16616999    0.0090742123
      4390.00      0.15977879    0.0090632661
      4394.39      0.15955536    0.0090535123
      4398.79      0.15497405    0.0089465234
      4403.18      0.14975489    0.0089391103
      4407.59      0.14321270    0.0090307273
      4412.00      0.13883275    0.0090201533
      4416.41      0.13311616    0.0089126393
      4420.82      0.13214308    0.0089046841
      4425.25      0.13217178    0.0088979520
      4429.67      0.13089917    0.0089868008
      4434.10      0.13317213    0.0088792241
      4438.54      0.13708219    0.0088709135
      4442.97      0.14683968    0.0088639057
      4447.42      0.15229672    0.0089537489
      4451.86      0.15973633    0.0088461300
      4456.32      0.16883342    0.0088374481
      4460.77      0.18319220    0.0088304036
      4465.24      0.19340180    0.0088247779
      4469.70      0.20582326    0.0088129274
      4474.17      0.21663762    0.0088043928
      4478.65      0.22697793    0.0087974026
      4483.12      0.23615493    0.0086915195
      4487.61      0.24164119    0.0087804353
      4492.09      0.24809440    0.0087721556
      4496.59      0.25594080    0.0087654684
      4501.08      0.25819568    0.0086591658
      4505.58      0.26342363    0.0087478062
      4510.09      0.27042194    0.0087398840
      4514.60      0.27572595    0.0086370173
      4519.12      0.28198534    0.0086264409
      4523.63      0.29216827    0.0087153298
      4528.16      0.30146120    0.0087080389
      4532.69      0.30690838    0.0086037546
      4537.22      0.32269111    0.0085939289
      4541.76      0.33629685    0.0086833351
      4546.30      0.35441431    0.0085816607
      4550.85      0.36551973    0.0085710651
      4555.40      0.37801051    0.0085624256
      4559.95      0.38684250    0.0085601298
      4564.51      0.39751114    0.0085486255
      4569.08      0.40552433    0.0085390800
      4573.65      0.40797469    0.0084425292
      4578.22      0.41902256    0.0085264389
      4582.80      0.42217164    0.0085163104
      4587.38      0.42029598    0.0084193769
      4591.97      0.41797314    0.0085041242
      4596.56      0.41774861    0.0084934957
      4601.16      0.41948749    0.0083965443
      4605.76      0.41986215    0.0084818063
      4610.37      0.42239544    0.0084707819
      4614.98      0.41691138    0.0083737624
      4619.59      0.41508181    0.0083674285
      4624.21      0.41757282    0.0084483655
      4628.84      0.41595161    0.0083515047
      4633.47      0.41368362    0.0083451630
      4638.10      0.41035816    0.0084261461
      4642.74      0.40821034    0.0083295724
      4647.38      0.40137953    0.0083233010
      4652.03      0.39363417    0.0084037082
      4656.68      0.38533599    0.0083073878
      4661.34      0.37771287    0.0083012762
      4666.00      0.37231252    0.0082935982
      4670.67      0.35908208    0.0082853598
      4675.33      0.35001777    0.0082796180
      4680.01      0.33855518    0.0082711233
      4684.69      0.33479010    0.0082634436
      4689.38      0.33126719    0.0082584052
      4694.07      0.32833439    0.0082494488
      4698.76      0.32343414    0.0082424346
      4703.46      0.31663139    0.0081481303
      4708.16      0.31766196    0.0082277831
      4712.87      0.31995892    0.0082216131
      4717.58      0.32252551    0.0081263144
      4722.30      0.32301176    0.0082065428
      4727.03      0.32316049    0.0081142672
      4731.75      0.32431181    0.0081046972
      4736.48      0.32347895    0.0081858488
      4741.22      0.31797838    0.0080921903
      4745.96      0.31358618    0.0080835999
      4750.71      0.30464414    0.0080803527
      4755.46      0.29838408    0.0080703307
      4760.22      0.29044767    0.0081508532
      4764.97      0.28375973    0.0080581402
      4769.74      0.27722503    0.0080496134
      4774.51      0.27606036    0.0080467729
      4779.29      0.27461454    0.0080367798
      4784.07      0.27680582    0.0079494257
      4788.85      0.27177265    0.0080245306
      4793.64      0.27747803    0.0080162164
      4798.43      0.28193512    0.0080127536
      4803.23      0.28786692    0.0080030684
      4808.03      0.29720008    0.0079165928
      4812.84      0.30488167    0.0079904358
      4817.66      0.31039923    0.0079029942
      4822.48      0.31821830    0.0079782698
      4827.30      0.31478257    0.0078898169
      4832.12      0.31610654    0.0078846775
      4836.96      0.31721921    0.0078774609
      4841.79      0.31481018    0.0078713666
      4846.63      0.31314797    0.0079448468
      4851.48      0.30720322    0.0078582340
      4856.33      0.30123531    0.0078546609
      4861.19      0.29482031    0.0078454485
      4866.05      0.29450421    0.0078411276
      4870.92      0.28918207    0.0078329561
      4875.79      0.29094274    0.0078279101
      4880.66      0.28954687    0.0078206901
      4885.55      0.29423500    0.0078148645
      4890.43      0.29831232    0.0077280485
      4895.32      0.31344819    0.0078023568
      4900.22      0.33407932    0.0077162079
      4905.12      0.35235280    0.0077897500
      4910.02      0.36871289    0.0077045249
      4914.94      0.38732320    0.0077776868
      4919.85      0.40749573    0.0076930554
      4924.77      0.42917428    0.0077656621
      4929.70      0.44502893    0.0076815868
      4934.62      0.46290285    0.0077538890
      4939.56      0.47739875    0.0076701199
      4944.50      0.48427005    0.0076621663
      4949.44      0.48523001    0.0076585423
      4954.39      0.48794985    0.0076504634
      4959.35      0.48062501    0.0076469281
      4964.31      0.46524758    0.0076387726
      4969.27      0.45155207    0.0076353383
      4974.24      0.43077493    0.0076272832
      4979.22      0.40955597    0.0076238958
      4984.20      0.39509723    0.0076158474
      4989.18      0.37951299    0.0076124510
      4994.17      0.36098909    0.0075316969
      4999.16      0.34040037    0.0076010818
      5004.16      0.32452747    0.0075207014
      5009.17      0.31528848    0.0075897744
      5014.18      0.31156480    0.0075098084
      5019.19      0.30215964    0.0075783545
      5024.21      0.30947596    0.0074990623
      5029.23      0.31889949    0.0075672013
      5034.26      0.32153469    0.0074885065
      5039.30      0.32518820    0.0075558846
      5044.34      0.33988317    0.0074779237
      5049.39      0.34880868    0.0074724010
      5054.43      0.34514212    0.0074679632
      5059.49      0.35132767    0.0074618357
      5064.55      0.36247175    0.0074582216
      5069.61      0.37072644    0.0074516288
      5074.68      0.37550336    0.0074489321
      5079.76      0.38391514    0.0074414955
      5084.84      0.39513378    0.0073634098
      5089.92      0.39808183    0.0074317006
      5095.01      0.40583503    0.0074264456
      5100.11      0.41864413    0.0074220768
      5105.21      0.44155463    0.0074160990
      5110.31      0.45945437    0.0073392966
      5115.42      0.47550570    0.0074059918
      5120.54      0.50018286    0.0073285130
      5125.66      0.52038079    0.0073966069
      5130.79      0.53184731    0.0073183266
      5135.92      0.54862715    0.0073160629
      5141.05      0.55999900    0.0073086916
      5146.20      0.55416901    0.0073052038
      5151.34      0.54975173    0.0073725780
      5156.49      0.55373604    0.0072950164
      5161.65      0.54849581    0.0072928682
      5166.81      0.55356999    0.0072853179
      5171.98      0.54195755    0.0072821557
      5177.15      0.54361946    0.0072090528
      5182.33      0.54732318    0.0072718655
      5187.51      0.54853065    0.0072697988
      5192.70      0.55650401    0.0071955001
      5197.89      0.56907631    0.0072592458
      5203.09      0.58313631    0.0071871264
      5208.29      0.60113425    0.0072496188
      5213.50      0.61933474    0.0072471807
