# starting wavelength =        3115.1900
# ending wavelength =        11981.500
# O2 telluric scale =        0
# O2 telluric shift =        0
# H2O telluric scale =        0
# H2O telluric shift =        0
      3115.80      0.93270893     0.052705235
      3118.91      0.90740054     0.044278277
      3122.03      0.89334306     0.036322593
      3125.15      0.87717559     0.031509304
      3128.28      0.86409952     0.028908468
      3131.41      0.85681053     0.025785445
      3134.54      0.85158992     0.022644217
      3137.67      0.85013598     0.020903518
      3140.81      0.84588260     0.019926622
      3143.95      0.82127098     0.018759058
      3147.10      0.81324927     0.017624899
      3150.24      0.81022096     0.016922547
      3153.39      0.80759172     0.016331840
      3156.55      0.81328547     0.016004179
      3159.70      0.81980274     0.015550827
      3162.86      0.81981696     0.015204035
      3166.03      0.82344844     0.014866150
      3169.19      0.82322329     0.014690730
      3172.36      0.82007773     0.014404416
      3175.54      0.82459805     0.014262580
      3178.71      0.82877871     0.014232683
      3181.89      0.83195219     0.014094718
      3185.07      0.83249040     0.014187851
      3188.26      0.84610203     0.014048862
      3191.45      0.85158408     0.014144001
      3194.64      0.85118237     0.014114621
      3197.83      0.85005116     0.014100941
      3201.03      0.84380110     0.014069856
      3204.23      0.85204510     0.014042174
      3207.44      0.85410469     0.014026199
      3210.64      0.85666923     0.013997018
      3213.85      0.84742376     0.014090689
      3217.07      0.84639840     0.013953019
      3220.28      0.83850556     0.014044416
      3223.51      0.84177807     0.013909996
      3226.73      0.83848005     0.013880449
      3229.96      0.84127247     0.013972698
      3233.19      0.83741488     0.013836890
      3236.42      0.83910619     0.013927048
      3239.66      0.82450724     0.013901851
      3242.90      0.81652904     0.013765027
      3246.14      0.81386121     0.013855615
      3249.39      0.80781047     0.013831464
      3252.64      0.79599863     0.013810778
      3255.89      0.78789683     0.013784605
      3259.14      0.77567227     0.013761397
      3262.40      0.76352455     0.013739363
      3265.67      0.76451674     0.013714253
      3268.93      0.76536653     0.013808094
      3272.20      0.76010648     0.013668574
      3275.47      0.76265446     0.013644183
      3278.75      0.75268982     0.013736401
      3282.03      0.74696966     0.013598216
      3285.31      0.73685121     0.013693845
      3288.60      0.72695395     0.013665204
      3291.88      0.71889792     0.013528085
      3295.18      0.71479943     0.013622360
      3298.47      0.70329177     0.013594270
      3301.77      0.69931851     0.013458250
      3305.07      0.69404572     0.013551407
      3308.38      0.68362607     0.013523894
      3311.69      0.67823460     0.013510730
      3315.00      0.67217671     0.013480985
      3318.31      0.66410577     0.013453656
      3321.63      0.66062728     0.013440308
      3324.95      0.66045797     0.013410840
      3328.28      0.65223581     0.013383860
      3331.61      0.65072683     0.013477039
      3334.94      0.65100634     0.013341326
      3338.27      0.65022937     0.013431824
      3341.61      0.64671009     0.013407113
      3344.95      0.64401923     0.013272008
      3348.30      0.63908474     0.013362008
      3351.65      0.63907069     0.013337035
      3355.00      0.63785691     0.013314584
      3358.35      0.64085251     0.013292433
      3361.71      0.64190165     0.013267588
      3365.07      0.64271898     0.013244650
      3368.44      0.65135290     0.013223436
      3371.81      0.66062158     0.013198009
      3375.18      0.66652801     0.013174930
      3378.56      0.67512916     0.013266617
      3381.94      0.68966667     0.013128978
      3385.32      0.70153990     0.013105424
      3388.70      0.71003827     0.013197781
      3392.09      0.71594838     0.013060161
      3395.48      0.72037295     0.013158046
      3398.88      0.72626864     0.013129415
      3402.28      0.74546658     0.013102716
      3405.68      0.76089651     0.013090889
      3409.09      0.77599452     0.013061687
      3412.49      0.78588673     0.013034515
      3415.91      0.79511031     0.013009070
      3419.32      0.80176796     0.012994702
      3422.74      0.81234500     0.012966870
      3426.17      0.81891299     0.012940818
      3429.59      0.82732221     0.013034183
      3433.02      0.83512078     0.012900094
      3436.45      0.84018163     0.012873181
      3439.89      0.84176954     0.012965081
      3443.33      0.84813206     0.012941584
      3446.78      0.84659563     0.012806648
      3450.22      0.84575202     0.012897102
      3453.67      0.84394253     0.012872386
      3457.13      0.84200737     0.012849451
      3460.58      0.84397559     0.012943472
      3464.04      0.84322340     0.012804137
      3467.51      0.84249649     0.012780266
      3470.98      0.84030381     0.012876895
      3474.45      0.84240093     0.012850301
      3477.92      0.84578748     0.012712145
      3481.40      0.84529431     0.012688575
      3484.88      0.84523642     0.012783766
      3488.37      0.84383763     0.012757473
      3491.86      0.84623001     0.012732612
      3495.35      0.84430364     0.012719468
      3498.84      0.84360147     0.012691911
      3502.34      0.84527342     0.012665744
      3505.84      0.85191374     0.012640928
      3509.35      0.85987459     0.012736266
      3512.86      0.86181902     0.012600498
      3516.37      0.85906333     0.012574307
      3519.89      0.85921441     0.012667843
      3523.41      0.86277386     0.012644260
      3526.93      0.86692367     0.012622183
      3530.46      0.86815089     0.012483935
      3533.99      0.86742415     0.012576362
      3537.53      0.86768049     0.012552401
      3541.06      0.85918778     0.012529837
      3544.60      0.85485763     0.012626254
      3548.15      0.84960498     0.012485484
      3551.70      0.84828188     0.012461470
      3555.25      0.84180525     0.012438479
      3558.80      0.84060770     0.012536021
      3562.36      0.84099806     0.012510075
      3565.92      0.84128905     0.012485199
      3569.49      0.83823798     0.012347463
      3573.06      0.83751305     0.012446869
      3576.64      0.83627105     0.012420457
      3580.21      0.83984780     0.012395284
      3583.79      0.83928650     0.012370938
      3587.38      0.83765484     0.012467977
      3590.96      0.83484830     0.012332218
      3594.55      0.83529363     0.012306319
      3598.15      0.83165650     0.012281284
      3601.75      0.82795076     0.012376703
      3605.35      0.82659923     0.012353628
      3608.96      0.82708239     0.012331400
      3612.56      0.82802612     0.012310114
      3616.18      0.82818632     0.012287044
      3619.79      0.83010113     0.012262936
      3623.41      0.83038245     0.012239605
      3627.04      0.82868545     0.012217464
      3630.66      0.82548125     0.012317098
      3634.29      0.82136301     0.012291934
      3637.93      0.81834709     0.012267271
      3641.57      0.81437092     0.012126840
      3645.21      0.81226206     0.012104212
      3648.86      0.81513239     0.012204926
      3652.50      0.82205645     0.012179543
      3656.16      0.82955318     0.012154826
      3659.81      0.83891884     0.012131053
      3663.47      0.84495201     0.012229873
      3667.14      0.84913361     0.012207079
      3670.80      0.85812238     0.012069027
      3674.48      0.86833461     0.012043907
      3678.15      0.87714555     0.012019623
      3681.83      0.88019870     0.012116875
      3685.51      0.88193416     0.012093664
      3689.20      0.87701515     0.012070979
      3692.88      0.86656749     0.012048860
      3696.58      0.86010769     0.012027478
      3700.27      0.85825871     0.012126708
      3703.98      0.85216544     0.012102388
      3707.68      0.83978277     0.011958673
      3711.39      0.82825358     0.011935929
      3715.10      0.81519587     0.011913585
      3718.81      0.80388053     0.012017753
      3722.53      0.79675484     0.011992847
      3726.26      0.78289975     0.011968395
      3729.98      0.76387655     0.011944389
      3733.71      0.74564060     0.011921295
      3737.45      0.72987623     0.012022688
      3741.18      0.72573593     0.012000308
      3744.93      0.72814163     0.011977986
      3748.67      0.73942014     0.011956320
      3752.42      0.74667635     0.011935277
      3756.17      0.74372319     0.011788878
      3759.93      0.73950647     0.011888719
      3763.69      0.73518425     0.011865273
      3767.45      0.73371672     0.011842650
      3771.22      0.73141726     0.011820210
      3774.99      0.73300513     0.011798024
      3778.77      0.73604350     0.011906798
      3782.54      0.73854376     0.011882313
      3786.33      0.74706300     0.011858181
      3790.11      0.76199331     0.011834243
      3793.90      0.76532789     0.011810807
      3797.70      0.75390207     0.011787841
      3801.50      0.74478944     0.011764997
      3805.30      0.74467019     0.011869982
      3809.10      0.74212516     0.011847872
      3812.91      0.74211463     0.011825724
      3816.73      0.73548866     0.011803953
      3820.54      0.73131817     0.011782538
      3824.36      0.74090411     0.011761256
      3828.19      0.76067424     0.011868246
      3832.02      0.79352926     0.011844538
      3835.85      0.82611502     0.011821381
      3839.68      0.86197699     0.011798302
      3843.52      0.88965145     0.011775276
      3847.37      0.91601924     0.011752917
      3851.22      0.94115633     0.011730532
      3855.07      0.97115064     0.011708246
      3858.92       1.0078659     0.011818464
      3862.78       1.0419757     0.011671946
      3866.64       1.0804607     0.011648461
      3870.51       1.1229551     0.011624795
      3874.38       1.1669419     0.011601678
      3878.26       1.2031547     0.011578591
      3882.13       1.2309447     0.011688783
      3886.02       1.2620634     0.011667480
      3889.90       1.2945080     0.011775440
      3893.79       1.3270803     0.011752349
      3897.69       1.3566602     0.011729498
      3901.59       1.3827831     0.011706930
      3905.49       1.4109729     0.011684292
      3909.39       1.4412386     0.011661878
      3913.30       1.4727770     0.011639556
      3917.22       1.5049267     0.011617217
      3921.13       1.5326845     0.011595099
      3925.06       1.5539891     0.011709285
      3928.98       1.5634935     0.011687311
      3932.91       1.5657176     0.011665152
      3936.84       1.5562494     0.011642918
      3940.78       1.5423982     0.011621064
      3944.72       1.5304163     0.011598748
      3948.67       1.5178097     0.011576984
      3952.61       1.5131128     0.011555066
      3956.57       1.5150781     0.011532985
      3960.52       1.5172704     0.011511399
      3964.48       1.5240078     0.011634404
      3968.45       1.5280313     0.011612021
      3972.42       1.5330552     0.011589098
      3976.39       1.5385984     0.011566561
      3980.37       1.5522049     0.011544255
      3984.35       1.5713294     0.011521876
      3988.33       1.6006056     0.011499808
      3992.32       1.6356185     0.011618202
      3996.31       1.6696234     0.011595790
      4000.31       1.6992205     0.011573295
      4004.31       1.7140551     0.011551044
      4008.31       1.7347423     0.011528949
      4012.32       1.7458458     0.011506736
      4016.33       1.7485736     0.011484764
      4020.35       1.7515345     0.011462558
      4024.37       1.7545178     0.011440181
      4028.40       1.7547366     0.011418020
      4032.42       1.7544687     0.011395716
      4036.46       1.7473304     0.011373578
      4040.50       1.7360247     0.011351622
      4044.54       1.7214278     0.011329562
      4048.58       1.7080851     0.011307727
      4052.63       1.6942312     0.011285521
      4056.68       1.6859903     0.011263551
      4060.74       1.6743208     0.011241763
      4064.80       1.6612281     0.011219910
      4068.86       1.6352835     0.011198232
      4072.93       1.5983992     0.011040894
      4077.01       1.5614647     0.011019664
      4081.08       1.5275059     0.010998339
      4085.17       1.5025341     0.010977269
      4089.25       1.4773170     0.010956504
      4093.34       1.4573865     0.010935617
      4097.43       1.4313625     0.010915045
      4101.53       1.4099737     0.010894518
      4105.63       1.3944958     0.010874072
      4109.74       1.3822767     0.010853961
      4113.85       1.3755700     0.010833802
      4117.96       1.3753449     0.010814018
      4122.08       1.3748036     0.010794554
      4126.20       1.3826821     0.010775135
      4130.33       1.3956361     0.010620569
      4134.46       1.4098958     0.010599572
      4138.59       1.4186349     0.010578585
      4142.73       1.4224906     0.010558228
      4146.88       1.4230851     0.010537862
      4151.02       1.4213783     0.010517623
      4155.18       1.4179139     0.010497907
      4159.33       1.4233516     0.010606495
      4163.49       1.4246235     0.010586850
      4167.65       1.4235804     0.010567648
      4171.82       1.4164270     0.010423186
      4175.99       1.4084712     0.010401721
      4180.17       1.4028834     0.010380828
      4184.35       1.4041666     0.010359813
      4188.54       1.4022958     0.010339559
      4192.72       1.4014856     0.010319435
      4196.92       1.4029878     0.010299521
      4201.11       1.4036859     0.010280402
      4205.31       1.4103775     0.010261433
      4209.52       1.4181323     0.010123831
      4213.73       1.4278211     0.010227188
      4217.94       1.4368453     0.010205958
      4222.16       1.4446448     0.010184953
      4226.38       1.4550906     0.010164830
      4230.61       1.4693299     0.010145001
      4234.84       1.4824856     0.010125582
      4239.08       1.4969889    0.0099892302
      4243.32       1.5100216    0.0099709420
      4247.56       1.5203123    0.0099532470
      4251.81       1.5293207    0.0099361787
      4256.06       1.5375632     0.010032941
      4260.32       1.5454707     0.010012747
      4264.58       1.5528325    0.0099930261
      4268.84       1.5535544    0.0098581508
      4273.11       1.5482364    0.0098399652
      4277.38       1.5416024    0.0098224913
      4281.66       1.5360494    0.0098055011
      4285.94       1.5332059    0.0097892549
      4290.23       1.5264932    0.0097736186
      4294.52       1.5244939    0.0097480211
      4298.81       1.5206338    0.0097295644
      4303.11       1.5178808    0.0097119227
      4307.42       1.5127521    0.0096948477
      4311.72       1.5040960    0.0096786197
      4316.04       1.4909856    0.0096630911
      4320.35       1.4727729    0.0095284601
      4324.67       1.4676145    0.0096212411
      4329.00       1.4651975    0.0096037138
      4333.33       1.4663915    0.0095868514
      4337.66       1.4693665    0.0095709400
      4342.00       1.4802892    0.0094413509
      4346.34       1.4863646    0.0094227444
      4350.69       1.4904746    0.0094048505
      4355.04       1.4905945    0.0094976147
      4359.39       1.4959032    0.0094813322
      4363.75       1.5086586    0.0093554110
      4368.12       1.5196119    0.0093365587
      4372.48       1.5305435    0.0093185672
      4376.86       1.5402484    0.0093014195
      4381.23       1.5415201    0.0093938684
      4385.61       1.5399541    0.0092704511
      4390.00       1.5323311    0.0092513070
      4394.39       1.5192620    0.0092333949
      4398.79       1.5076006    0.0092164773
      4403.18       1.4922624    0.0090985757
      4407.59       1.4859752    0.0091859322
      4412.00       1.4819063    0.0091670581
      4416.41       1.4806528    0.0091492801
      4420.82       1.4757754    0.0091328437
      4425.25       1.4723321    0.0090164292
      4429.67       1.4691434    0.0091021106
      4434.10       1.4624125    0.0090836548
      4438.54       1.4632322    0.0090665410
      4442.97       1.4664439    0.0089504053
      4447.42       1.4716429    0.0089360066
      4451.86       1.4824308    0.0090190051
      4456.32       1.4954125    0.0090015466
      4460.77       1.5089969    0.0088858456
      4465.24       1.5279108    0.0088711575
      4469.70       1.5589693    0.0088579785
      4474.17       1.5932016    0.0089373129
      4478.65       1.6329412    0.0088221008
      4483.12       1.6740066    0.0088076677
      4487.61       1.7187709    0.0087945269
      4492.09       1.7731664    0.0087753640
      4496.59       1.8180574    0.0087594626
      4501.08       1.8604760    0.0087451885
      4505.58       1.9000568    0.0087321513
      4510.09       1.9396469    0.0086172419
      4514.60       1.9751866    0.0086978667
      4519.12       2.0000726    0.0086838392
      4523.63       2.0331521    0.0086712983
      4528.16       2.0587429    0.0085566416
      4532.69       2.0819620    0.0086369778
      4537.22       2.1086342    0.0086233587
      4541.76       2.1301729    0.0085125754
      4546.30       2.1491246    0.0084967718
      4550.85       2.1682897    0.0085771542
      4555.40       2.1848774    0.0084696887
      4559.95       2.1964854    0.0084529739
      4564.51       2.2071673    0.0084379253
      4569.08       2.2178010    0.0085187061
      4573.65       2.2256722    0.0084101555
      4578.22       2.2292162    0.0083944351
      4582.80       2.2297848    0.0083805570
      4587.38       2.2273242    0.0083679696
      4591.97       2.2223734    0.0083516444
      4596.56       2.2151519    0.0083371704
      4601.16       2.2046417    0.0083261688
      4605.76       2.1928886    0.0083093810
      4610.37       2.1861270    0.0082945775
      4614.98       2.1709860    0.0081939656
      4619.59       2.1619007    0.0082678007
      4624.21       2.1525613    0.0082526597
      4628.84       2.1347859    0.0081520570
      4633.47       2.1149609    0.0082264523
      4638.10       2.0947011    0.0082112399
      4642.74       2.0681429    0.0081110951
      4647.38       2.0438509    0.0081857626
      4652.03       2.0230144    0.0081702556
      4656.68       2.0049142    0.0080705792
      4661.34       1.9869164    0.0080597462
      4666.00       1.9671598    0.0081298118
      4670.67       1.9466546    0.0080307723
      4675.33       1.9236699    0.0080202121
      4680.01       1.8983418    0.0080039324
      4684.69       1.8820711    0.0079913911
      4689.38       1.8650866    0.0079813038
      4694.07       1.8451852    0.0079649459
      4698.76       1.8257003    0.0079529107
      4703.46       1.8065923    0.0079431592
      4708.16       1.7957594    0.0079263167
      4712.87       1.7828555    0.0079147703
      4717.58       1.7710470    0.0078181017
      4722.30       1.7585014    0.0078883906
      4727.03       1.7462233    0.0078776199
      4731.75       1.7335526    0.0077803748
      4736.48       1.7255210    0.0078510286
      4741.22       1.7161209    0.0077571001
      4745.96       1.7044147    0.0077432185
      4750.71       1.6868538    0.0078145744
      4755.46       1.6672827    0.0077197687
      4760.22       1.6478249    0.0077067374
      4764.97       1.6251186    0.0076974609
      4769.74       1.6057730    0.0076831404
      4774.51       1.5882190    0.0077534980
      4779.29       1.5688214    0.0076604188
      4784.07       1.5537171    0.0076474172
