# starting wavelength =        3115.1900
# ending wavelength =        10284.100
# O2 telluric scale =        0
# O2 telluric shift =        0
# H2O telluric scale =        0
# H2O telluric shift =        0
      3115.80       1.0325571      0.10133331
      3118.91       1.0699201     0.085101331
      3122.03       1.0808007     0.069808599
      3125.15       1.0921560     0.060537334
      3128.28       1.0830120     0.055522249
      3131.41       1.0774454     0.049507201
      3134.54       1.0668730     0.043475078
      3137.67       1.0607266     0.040119089
      3140.81       1.0425736     0.038233049
      3143.95       1.0135659     0.035980719
      3147.10       1.0097188     0.033802428
      3150.24       1.0043441     0.032443882
      3153.39       1.0030356     0.031681759
      3156.55      0.99132385     0.030665670
      3159.70      0.98219587     0.029849359
      3162.86      0.96866106     0.029117784
      3166.03      0.96866860     0.028460539
      3169.19      0.96563501     0.028119548
      3172.36      0.97420547     0.027561731
      3175.54      0.97282775     0.027285496
      3178.71      0.96414532     0.027209389
      3181.89      0.93964106     0.027377386
      3185.07      0.94356108     0.027095317
      3188.26      0.97731749     0.027259510
      3191.45      0.97425079     0.026983201
      3194.64      0.98155718     0.026908228
      3197.83      0.97124384     0.027074264
      3201.03      0.98212162     0.026794500
      3204.23      0.98107300     0.026956577
      3207.44       1.0106267     0.026890886
      3210.64       1.0127438     0.026841169
      3213.85       1.0222373     0.026772382
      3217.07       1.0488840     0.026942590
      3220.28       1.0742155     0.026655834
      3223.51       1.1066701     0.026589852
      3226.73       1.1082108     0.026754745
      3229.96       1.1143527     0.026472033
      3233.19       1.1257549     0.026641844
      3236.42       1.1181249     0.026568677
      3239.66       1.1172633     0.026531894
      3242.90       1.1184294     0.026455035
      3246.14       1.1241484     0.026384233
      3249.39       1.1311447     0.026344266
      3252.64       1.1223118     0.026269857
      3255.89       1.1138703     0.026437305
      3259.14       1.1046793     0.026158313
      3262.40       1.1136602     0.026085994
      3265.67       1.1188043     0.026254034
      3268.93       1.1107310     0.025973991
      3272.20       1.1080705     0.026137045
      3275.47       1.0998210     0.026071478
      3278.75       1.0993137     0.026023565
      3282.03       1.1036303     0.025954047
      3285.31       1.0982776     0.025889641
      3288.60       1.0950699     0.025839951
      3291.88       1.0806784     0.025771677
      3295.18       1.0800678     0.025944265
      3298.47       1.0835466     0.025657404
      3301.77       1.0840694     0.025590062
      3305.07       1.0785409     0.025760124
      3308.38       1.0701783     0.025688295
      3311.69       1.0742661     0.025409176
      3315.00       1.0725669     0.025577210
      3318.31       1.0680816     0.025505808
      3321.63       1.0727539     0.025470731
      3324.95       1.0748317     0.025395033
      3328.28       1.0858239     0.025324421
      3331.61       1.0858873     0.025493863
      3334.94       1.0779971     0.025214391
      3338.27       1.0777485     0.025378217
      3341.61       1.0668885     0.025311712
      3344.95       1.0565724     0.025034273
      3348.30       1.0482431     0.025196336
      3351.65       1.0496929     0.025130176
      3355.00       1.0434828     0.025068378
      3358.35       1.0384102     0.025016001
      3361.71       1.0438490     0.024949430
      3365.07       1.0369056     0.025123761
      3368.44       1.0379188     0.025051338
      3371.81       1.0368742     0.024769290
      3375.18       1.0352960     0.024943236
      3378.56       1.0336243     0.024871071
      3381.94       1.0362260     0.024803000
      3385.32       1.0316615     0.024765004
      3388.70       1.0342915     0.024692044
      3392.09       1.0313464     0.024623025
      3395.48       1.0268833     0.024794930
      3398.88       1.0282210     0.024514142
      3402.28       1.0261098     0.024444304
      3405.68       1.0227523     0.024613025
      3409.09       1.0161482     0.024550921
      3412.49       1.0139725     0.024500235
      3415.91       1.0187855     0.024432936
      3419.32       1.0199325     0.024369212
      3422.74       1.0202832     0.024542271
      3426.17       1.0262576     0.024253727
      3429.59       1.0368268     0.024188582
      3433.02       1.0398590     0.024364926
      3436.45       1.0313140     0.024293700
      3439.89       1.0359259     0.024009646
      3443.33       1.0380548     0.024190012
      3446.78       1.0359948     0.024117331
      3450.22       1.0348491     0.024048116
      3453.67       1.0387610     0.024221315
      3457.13       1.0350027     0.023942679
      3460.58       1.0328905     0.023871362
      3464.04       1.0407766     0.024040882
      3467.51       1.0382652     0.023975866
      3470.98       1.0329871     0.023914932
      3474.45       1.0345274     0.023863510
      3477.92       1.0334507     0.023796529
      3481.40       1.0421120     0.023732111
      3484.88       1.0376040     0.023671540
      3488.37       1.0385909     0.023841618
      3491.86       1.0382630     0.023553127
      3495.35       1.0395179     0.023490065
      3498.84       1.0401705     0.023667409
      3502.34       1.0324170     0.023597853
      3505.84       1.0273518     0.023531136
      3509.35       1.0314790     0.023496592
      3512.86       1.0294877     0.023424217
      3516.37       1.0351054     0.023355136
      3519.89       1.0354769     0.023529232
      3523.41       1.0457992     0.023465350
      3526.93       1.0476346     0.023404113
      3530.46       1.0519011     0.023114847
      3533.99       1.0525540     0.023285911
      3537.53       1.0528569     0.023221125
      3541.06       1.0468718     0.023159358
      3544.60       1.0365721     0.023339076
      3548.15       1.0263106     0.023270567
      3551.70       1.0241855     0.022979428
      3555.25       1.0221007     0.022917052
      3558.80       1.0222912     0.023098594
      3562.36       1.0234015     0.023028990
      3565.92       1.0176177     0.022962640
      3569.49       1.0119921     0.023143715
      3573.06       1.0143165     0.022860424
      3576.64       1.0156673     0.022790553
      3580.21       1.0093515     0.022722916
      3583.79       1.0099398     0.022900317
      3587.38       1.0107519     0.022836529
      3590.96       1.0077117     0.022775339
      3594.55       1.0076894     0.022716237
      3598.15       1.0058356     0.022659356
      3601.75       1.0128101     0.022594092
      3605.35       1.0227153     0.022531426
      3608.96       1.0193880     0.022723117
      3612.56       1.0195084     0.022653354
      3616.18       1.0287982     0.022585467
      3619.79       1.0268110     0.022520030
      3623.41       1.0291297     0.022706301
      3627.04       1.0250451     0.022419108
      3630.66       1.0251042     0.022349746
      3634.29       1.0157054     0.022281959
      3637.93       1.0144265     0.022463404
      3641.57       1.0167833     0.022398980
      3645.21       1.0132733     0.022336393
      3648.86       1.0125059     0.022275456
      3652.50       1.0110143     0.022466341
      3656.16       1.0026099     0.022398358
      3659.81       1.0024619     0.022333023
      3663.47       1.0062576     0.022031009
      3667.14       1.0049446     0.022234569
      3670.80      0.99877288     0.022163952
      3674.48       1.0083319     0.022095486
      3678.15       1.0133650     0.022029113
      3681.83       1.0137126     0.021963556
      3685.51       1.0192075     0.022153936
      3689.20       1.0198824     0.022091152
      3692.88       1.0194071     0.022030145
      3696.58       1.0030454     0.021970340
      3700.27      0.99879685     0.022163458
      3703.98       1.0038921     0.021848953
      3707.68       1.0128223     0.021784567
      3711.39       1.0081373     0.021721684
      3715.10       1.0045340     0.021659796
      3718.81       1.0001763     0.021864322
      3722.53      0.99276703     0.021796046
      3726.26       1.0071386     0.021729020
      3729.98       1.0162179     0.021663191
      3733.71       1.0158369     0.021598864
      3737.45       1.0179981     0.021795227
      3741.18       1.0064218     0.021733040
      3744.93       1.0112217     0.021671590
      3748.67       1.0239925     0.021610951
      3752.42       1.0448779     0.021816558
      3756.17       1.0909318     0.021749306
      3759.93       1.1163232     0.021683483
      3763.69       1.1114301     0.021618412
      3767.45       1.1094768     0.021554652
      3771.22       1.1015881     0.021492301
      3774.99       1.0963120     0.021701201
      3778.77       1.1033653     0.021389046
      3782.54       1.1193930     0.021321134
      3786.33       1.1429917     0.021254576
      3790.11       1.1540059     0.021188582
      3793.90       1.1629028     0.021390105
      3797.70       1.1797477     0.021325468
      3801.50       1.1825266     0.021262215
      3805.30       1.1737470     0.021199577
      3809.10       1.1421025     0.021137008
      3812.91       1.1077819     0.021075086
      3816.73       1.0898017     0.021299063
      3820.54       1.0806021     0.021231702
      3824.36       1.0880669     0.021164743
      3828.19       1.1083462     0.021099709
      3832.02       1.1254342     0.021034347
      3835.85       1.1288142     0.020969754
      3839.68       1.1297267     0.020905490
      3843.52       1.1378786     0.021116883
      3847.37       1.1622082     0.021053429
      3851.22       1.2029738     0.020990239
      3855.07       1.2277476     0.020927890
      3858.92       1.2326976     0.020866523
      3862.78       1.2333188     0.020804403
      3866.64       1.2247238     0.020490003
      3870.51       1.2164173     0.020424590
      3874.38       1.1919262     0.020360591
      3878.26       1.1688184     0.020296769
      3882.13       1.1591353     0.020233009
      3886.02       1.1595026     0.020170706
      3889.90       1.1774995     0.020107194
      3893.79       1.1899539     0.020045108
      3897.69       1.2019524     0.019983021
      3901.59       1.2236253     0.019920949
      3905.49       1.2556592     0.019860074
      3909.39       1.2875144     0.019799163
      3913.30       1.3202060     0.019738305
      3917.22       1.3552379     0.019677337
      3921.13       1.3822788     0.019372006
      3925.06       1.4062679     0.019312539
      3928.98       1.4028231     0.019253120
      3932.91       1.3885827     0.019193996
      3936.84       1.3747208     0.019135377
      3940.78       1.3421657     0.019076229
      3944.72       1.3077995     0.019017438
      3948.67       1.2830170     0.018958573
      3952.61       1.2677792     0.018900069
      3956.57       1.2604096     0.018841904
      3960.52       1.2511656     0.018783587
      3964.48       1.2473405     0.018725616
      3968.45       1.2386421     0.018667419
      3972.42       1.2430115     0.018609019
      3976.39       1.2534165     0.018550978
      3980.37       1.2736471     0.018492818
      3984.35       1.2994394     0.018435074
      3988.33       1.3339725     0.018377658
      3992.32       1.3776036     0.018320158
      3996.31       1.4162853     0.018262264
      4000.31       1.4557369     0.018204306
      4004.31       1.4749897     0.018146777
      4008.31       1.4974030     0.018089568
      4012.32       1.5042143     0.018032234
      4016.33       1.5038900     0.017975313
      4020.35       1.5052397     0.017918112
      4024.37       1.5095411     0.017860677
      4028.40       1.5069513     0.017803662
      4032.42       1.5085239     0.017746488
      4036.46       1.5066955     0.017689617
      4040.50       1.5042074     0.017633103
      4044.54       1.5031577     0.017576490
      4048.58       1.5038380     0.017520259
      4052.63       1.5019667     0.017463538
      4056.68       1.5048208     0.017407232
      4060.74       1.5129954     0.017351286
      4064.80       1.5059776     0.017295301
      4068.86       1.4862620     0.017239629
      4072.93       1.4391734     0.016969870
      4077.01       1.3999089     0.016915229
      4081.08       1.3587781     0.016860617
      4085.17       1.3255616     0.016806420
      4089.25       1.2966598     0.016752735
      4093.34       1.2793613     0.016698922
      4097.43       1.2522284     0.016645660
      4101.53       1.2391337     0.016592497
      4105.63       1.2383022     0.016539549
      4109.74       1.2380506     0.016487156
      4113.85       1.2468553     0.016434754
      4117.96       1.2602552     0.016382991
      4122.08       1.2701035     0.016331754
      4126.20       1.2922845     0.016280639
      4130.33       1.3312171     0.016020171
      4134.46       1.3645175     0.015967087
      4138.59       1.3905081     0.015914078
      4142.73       1.3979144     0.015862082
      4146.88       1.3976241     0.015810134
      4151.02       1.3896583     0.015758433
      4155.18       1.3912548     0.015707568
      4159.33       1.3925374     0.015843198
      4163.49       1.3949785     0.015792331
      4167.65       1.3965776     0.015742163
      4171.82       1.3929483     0.015500284
      4175.99       1.3935247     0.015447147
      4180.17       1.4059799     0.015394917
      4184.35       1.4197659     0.015342586
      4188.54       1.4202665     0.015291457
      4192.72       1.4235693     0.015240577
      4196.92       1.4255884     0.015189855
      4201.11       1.4226707     0.015140795
      4205.31       1.4318363     0.015091809
      4209.52       1.4428655     0.014863328
      4213.73       1.4473449     0.014988864
      4217.94       1.4491846     0.014936761
      4222.16       1.4490722     0.014885071
      4226.38       1.4495049     0.014834718
      4230.61       1.4573028     0.014784856
      4234.84       1.4670551     0.014735651
      4239.08       1.4659748     0.014511373
      4243.32       1.4669806     0.014464208
      4247.56       1.4655635     0.014417951
      4251.81       1.4675137     0.014372677
      4256.06       1.4760834     0.014486750
      4260.32       1.4872535     0.014436837
      4264.58       1.4897686     0.014387690
      4268.84       1.4795893     0.014167856
      4273.11       1.4622427     0.014121285
      4277.38       1.4489487     0.014075811
      4281.66       1.4379006     0.014031092
      4285.94       1.4333122     0.013987480
      4290.23       1.4248065     0.013944770
      4294.52       1.4211037     0.013877831
      4298.81       1.4088773     0.013831273
      4303.11       1.3997767     0.013785957
      4307.42       1.3844328     0.013741507
      4311.72       1.3714533     0.013698302
      4316.04       1.3528585     0.013656139
      4320.35       1.3248127     0.013440902
      4324.67       1.3128097     0.013546749
      4329.00       1.3113859     0.013501998
      4333.33       1.3175337     0.013458246
      4337.66       1.3244066     0.013415875
      4342.00       1.3459210     0.013209409
      4346.34       1.3538343     0.013163646
      4350.69       1.3575087     0.013118949
      4355.04       1.3612661     0.013223570
      4359.39       1.3770812     0.013181028
      4363.75       1.3985177     0.012981323
      4368.12       1.4169172     0.012935579
      4372.48       1.4352274     0.012891102
      4376.86       1.4484687     0.012847855
      4381.23       1.4495770     0.012950998
      4385.61       1.4501831     0.012756403
      4390.00       1.4468991     0.012710616
      4394.39       1.4433897     0.012666536
      4398.79       1.4414836     0.012624028
      4403.18       1.4390253     0.012438551
      4407.59       1.4383519     0.012533892
      4412.00       1.4494386     0.012488876
      4416.41       1.4566054     0.012445408
      4420.82       1.4607330     0.012403846
      4425.25       1.4646168     0.012221936
      4429.67       1.4605549     0.012314207
      4434.10       1.4498346     0.012270132
      4438.54       1.4470493     0.012227943
      4442.97       1.4383646     0.012047681
      4447.42       1.4341360     0.012009484
      4451.86       1.4306808     0.012097377
      4456.32       1.4300307     0.012055020
      4460.77       1.4208924     0.011876623
      4465.24       1.4184193     0.011838321
      4469.70       1.4256790     0.011802086
      4474.17       1.4361514     0.011884341
      4478.65       1.4541914     0.011707869
      4483.12       1.4802243     0.011670186
      4487.61       1.5126242     0.011634276
      4492.09       1.5453870     0.011581231
      4496.59       1.5850868     0.011541828
      4501.08       1.6212123     0.011504619
      4505.58       1.6606108     0.011469117
      4510.09       1.7022059     0.011295462
      4514.60       1.7344243     0.011378395
      4519.12       1.7549896     0.011341804
      4523.63       1.7787184     0.011307213
      4528.16       1.7915102     0.011135147
      4532.69       1.8047517     0.011217122
      4537.22       1.8153822     0.011181343
      4541.76       1.8150291     0.011015291
      4546.30       1.8055669     0.010977039
      4550.85       1.7978595     0.011058490
      4555.40       1.7874600     0.010897660
      4559.95       1.7752813     0.010858470
      4564.51       1.7587296     0.010821490
      4569.08       1.7441243     0.010902893
      4573.65       1.7245915     0.010741891
      4578.22       1.7044173     0.010704276
      4582.80       1.6887514     0.010669068
      4587.38       1.6801932     0.010626831
      4591.97       1.6711906     0.010588696
      4596.56       1.6621460     0.010552970
      4601.16       1.6453482     0.010513000
      4605.76       1.6268671     0.010474502
      4610.37       1.6130967     0.010438604
      4614.98       1.5930690     0.010290619
      4619.59       1.5835765     0.010361939
      4624.21       1.5737844     0.010325843
      4628.84       1.5545555     0.010178762
      4633.47       1.5353196     0.010250393
      4638.10       1.5230779     0.010214442
      4642.74       1.5027600     0.010068830
      4647.38       1.4828603     0.010140423
      4652.03       1.4679182     0.010104346
      4656.68       1.4630174    0.0099601914
      4661.34       1.4517985    0.0099302369
      4666.00       1.4455635    0.0099956634
      4670.67       1.4396843    0.0098531827
      4675.33       1.4340136    0.0098237533
      4680.01       1.4289858    0.0097791602
      4684.69       1.4330310    0.0097474413
      4689.38       1.4326562    0.0097187850
      4694.07       1.4254384    0.0096744331
      4698.76       1.4199668    0.0096435591
      4703.46       1.4153038    0.0096155215
      4708.16       1.4215162    0.0095708918
      4712.87       1.4219766    0.0095408371
      4717.58       1.4244204    0.0094043698
      4722.30       1.4246843    0.0094689540
      4727.03       1.4233297    0.0094400582
      4731.75       1.4187168    0.0093037545
      4736.48       1.4199249    0.0093684553
      4741.22       1.4252841    0.0092367229
      4745.96       1.4263912    0.0092045875
      4750.71       1.4232282    0.0092698101
      4755.46       1.4198547    0.0091378738
      4760.22       1.4181956    0.0091069994
      4764.97       1.4185001    0.0090728738
      4769.74       1.4177395    0.0090406211
      4774.51       1.4213904    0.0091041181
      4779.29       1.4182104    0.0089756684
      4784.07       1.4160400    0.0089452169
