# starting wavelength =        3115.1900
# ending wavelength =        9984.5800
# O2 telluric scale =        0
# O2 telluric shift =        0
# H2O telluric scale =        0
# H2O telluric shift =        0
      3115.80      0.92855077      0.10931903
      3118.91       1.0042343     0.091798825
      3122.03       1.0323280     0.075301892
      3125.15       1.0524645     0.065294850
      3128.28       1.0680050     0.059880114
      3131.41       1.0947166     0.053387834
      3134.54       1.1171127     0.046882565
      3137.67       1.1339738     0.043259257
      3140.81       1.1472439     0.041222224
      3143.95       1.1560942     0.038790109
      3147.10       1.1684617     0.036440816
      3150.24       1.1652440     0.034972734
      3153.39       1.1588506     0.034149029
      3156.55       1.1424520     0.033050598
      3159.70       1.1310333     0.032169428
      3162.86       1.1230910     0.031377849
      3166.03       1.1151082     0.030959130
      3169.19       1.1064668     0.030297536
      3172.36       1.1035217     0.029693554
      3175.54       1.0902709     0.029394489
      3178.71       1.0590340     0.029306807
      3181.89       1.0473764     0.029483487
      3185.07       1.0414975     0.029175413
      3188.26       1.0273632     0.029347950
      3191.45       1.0159104     0.029046171
      3194.64       1.0045533     0.029214150
      3197.83       1.0584808     0.029134231
      3201.03       1.0524399     0.028828883
      3204.23       1.0331509     0.028999020
      3207.44       1.0495132     0.028922636
      3210.64       1.0485568     0.028866306
      3213.85       1.0315406     0.028786621
      3217.07       1.0214551     0.028965363
      3220.28       1.0071740     0.028652758
      3223.51       1.0040417     0.028836479
      3226.73       1.0117927     0.028749078
      3229.96       1.0014932     0.028440982
      3233.19       1.0110181     0.028619162
      3236.42       1.0012679     0.028534831
      3239.66       1.0040520     0.028492457
      3242.90       1.0150810     0.028404189
      3246.14       1.0264451     0.028579370
      3249.39       1.0447832     0.028276685
      3252.64       1.0389916     0.028191100
      3255.89       1.0278288     0.028366507
      3259.14       1.0272819     0.028062826
      3262.40       1.0236498     0.028233175
      3265.67       1.0107150     0.028155498
      3268.93       1.0027978     0.027850858
      3272.20      0.99306150     0.028021418
      3275.47      0.97941017     0.027945389
      3278.75      0.97901983     0.027891155
      3282.03      0.97360329     0.027810913
      3285.31      0.97378476     0.027736156
      3288.60      0.96731514     0.027909523
      3291.88      0.95622245     0.027601191
      3295.18      0.96795258     0.027781739
      3298.47      0.97150715     0.027697727
      3301.77      0.97845299     0.027392416
      3305.07      0.97574042     0.027570167
      3308.38      0.97583799     0.027487530
      3311.69      0.97160655     0.027447518
      3315.00      0.96465718     0.027360022
      3318.31      0.97207443     0.027277899
      3321.63      0.97559922     0.027456022
      3324.95      0.97943834     0.027150811
      3328.28      0.97365427     0.027322880
      3331.61      0.97264452     0.027246393
      3334.94      0.98137249     0.026943363
      3338.27      0.98368948     0.027114124
      3341.61      0.97755859     0.027037289
      3344.95      0.98198517     0.027219620
      3348.30      0.98816213     0.026905393
      3351.65      0.99457653     0.026828975
      3355.00       1.0065673     0.027010274
      3358.35       1.0135992     0.026928425
      3361.71       1.0099635     0.026621639
      3365.07       1.0097307     0.026803335
      3368.44       1.0112746     0.026720265
      3371.81       1.0088430     0.026900691
      3375.18       1.0041730     0.026596261
      3378.56       1.0061505     0.026513520
      3381.94       1.0025614     0.026690879
      3385.32       1.0041973     0.026616803
      3388.70       1.0136161     0.026308222
      3392.09       1.0138784     0.026482955
      3395.48       1.0131499     0.026407698
      3398.88       1.0131468     0.026336847
      3402.28       1.0146395     0.026275818
      3405.68       1.0306015     0.026199420
      3409.09       1.0346206     0.026127528
      3412.49       1.0333682     0.026304658
      3415.91       1.0359170     0.025993237
      3419.32       1.0480434     0.026183751
      3422.74       1.0519527     0.026099350
      3426.17       1.0541560     0.026019543
      3429.59       1.0604244     0.025981594
      3433.02       1.0628721     0.025896161
      3436.45       1.0651578     0.025814618
      3439.89       1.0696533     0.025995181
      3443.33       1.0688543     0.025921450
      3446.78       1.0775597     0.025612641
      3450.22       1.0807572     0.025789038
      3453.67       1.0808297     0.025712830
      3457.13       1.0804268     0.025640393
      3460.58       1.0807147     0.025824248
      3464.04       1.0791731     0.025506646
      3467.51       1.0715273     0.025431795
      3470.98       1.0669513     0.025622221
      3474.45       1.0624241     0.025540436
      3477.92       1.0564456     0.025463066
      3481.40       1.0480260     0.025423047
      3484.88       1.0389167     0.025339139
      3488.37       1.0165101     0.025258583
      3491.86       1.0019461     0.025181966
      3495.35      0.99259549     0.025369628
      3498.84      0.99111420     0.025059336
      3502.34      0.98169227     0.024979808
      3505.84      0.97938000     0.025161803
      3509.35      0.97960175     0.025088069
      3512.86      0.97768669     0.025017912
      3516.37      0.96956509     0.024958502
      3519.89      0.96637437     0.024882117
      3523.41      0.95914093     0.024808645
      3526.93      0.95473237     0.025003257
      3530.46      0.94704196     0.024922317
      3533.99      0.94169535     0.024844665
      3537.53      0.94092938     0.024529830
      3541.06      0.94393151     0.024725163
      3544.60      0.94672891     0.024644057
      3548.15      0.93630543     0.024565759
      3551.70      0.94226948     0.024754943
      3555.25      0.94926985     0.024681723
      3558.80      0.95162428     0.024612131
      3562.36      0.95662457     0.024551623
      3565.92      0.96112491     0.024474897
      3569.49      0.96670698     0.024400582
      3573.06      0.95806469     0.024329412
      3576.64      0.96031819     0.024524652
      3580.21      0.94984886     0.024445929
      3583.79      0.95383738     0.024370144
      3587.38      0.95759049     0.024049954
      3590.96      0.96369181     0.024250132
      3594.55      0.96353797     0.024170021
      3598.15      0.96802491     0.024092251
      3601.75      0.97889177     0.024286084
      3605.35      0.98119432     0.024212578
      3608.96      0.97945655     0.024141634
      3612.56      0.98149618     0.023819784
      3616.18      0.97623911     0.024008063
      3619.79      0.97406330     0.023932428
      3623.41      0.97144472     0.023858868
      3627.04      0.97512623     0.023788389
      3630.66      0.97215026     0.023990589
      3634.29      0.97215694     0.023912238
      3637.93      0.96257476     0.023835819
      3641.57      0.96670920     0.023761276
      3645.21      0.96991282     0.023722685
      3648.86      0.96612009     0.023641497
      3652.50      0.97131598     0.023562932
      3656.16      0.97051734     0.023485547
      3659.81      0.97020305     0.023683391
      3663.47      0.96884059     0.023609479
      3667.14      0.97131391     0.023537659
      3670.80      0.97625287     0.023467496
      3674.48      0.98104552     0.023674549
      3678.15      0.98756988     0.023596668
      3681.83      0.99684282     0.023520970
      3685.51       1.0066791     0.023446864
      3689.20       1.0103398     0.023409640
      3692.88       1.0185037     0.023328654
      3696.58       1.0189252     0.023249645
      3700.27       1.0050395     0.023172221
      3703.98       1.0080504     0.023096336
      3707.68       1.0052149     0.023301795
      3711.39       1.0021979     0.023227966
      3715.10      0.98388728     0.023156704
      3718.81      0.96025183     0.023086512
      3722.53      0.94499023     0.023304443
      3726.26      0.93576718     0.023226369
      3729.98      0.93051021     0.023149767
      3733.71      0.92168401     0.023074939
      3737.45      0.89996549     0.023001166
      3741.18      0.88919153     0.023219949
      3744.93      0.87228529     0.023148544
      3748.67      0.87695555     0.022807019
      3752.42      0.89662078     0.022729442
      3756.17      0.91767575     0.022653158
      3759.93      0.93252876     0.022864283
      3763.69      0.93525166     0.022789733
      3767.45      0.92686297     0.022716236
      3771.22      0.91530956     0.022644012
      3774.99      0.90294163     0.022573292
      3778.77      0.89373365     0.022808790
      3782.54      0.90559873     0.022730487
      3786.33      0.91532611     0.022652170
      3790.11      0.91016945     0.022576146
      3793.90      0.92202836     0.022500879
      3797.70      0.93958546     0.022723861
      3801.50      0.96194374     0.022650493
      3805.30      0.94991929     0.022576859
      3809.10      0.91395388     0.022504962
      3812.91      0.88549320     0.022432818
      3816.73      0.88333319     0.022362013
      3820.54      0.90075641     0.022292453
      3824.36      0.91917425     0.021939016
      3828.19      0.94686529     0.021865303
      3832.02      0.96598832     0.021791276
      3835.85      0.97983668     0.021718068
      3839.68      0.98050626     0.021645229
      3843.52      0.99414324     0.021859368
      3847.37       1.0339569     0.021787327
      3851.22       1.0687346     0.021715587
      3855.07       1.1040459     0.021644742
      3858.92       1.1253999     0.021574936
      3862.78       1.1385856     0.021504373
      3866.64       1.1418965     0.021174683
      3870.51       1.1572473     0.021100845
      3874.38       1.1491167     0.021028490
      3878.26       1.1292427     0.020956350
      3882.13       1.1269865     0.020884299
      3886.02       1.1427875     0.020813774
      3889.90       1.1725742     0.020742026
      3893.79       1.2037154     0.020671774
      3897.69       1.2321295     0.020601552
      3901.59       1.2651834     0.020531366
      3905.49       1.3110812     0.020462454
      3909.39       1.3506178     0.020393500
      3913.30       1.3926728     0.020324639
      3917.22       1.4404080     0.020255691
      3921.13       1.4726432     0.019936784
      3925.06       1.5030863     0.019869507
      3928.98       1.5113839     0.019802304
      3932.91       1.5122346     0.019735424
      3936.84       1.5076507     0.019669093
      3940.78       1.4814788     0.019602236
      3944.72       1.4609084     0.019535770
      3948.67       1.4349664     0.019469266
      3952.61       1.4112230     0.019403144
      3956.57       1.4043048     0.019337401
      3960.52       1.3923556     0.019271526
      3964.48       1.3961180     0.019206025
      3968.45       1.4047775     0.019140324
      3972.42       1.4152695     0.019074431
      3976.39       1.4276890     0.019008939
      3980.37       1.4500795     0.018943350
      3984.35       1.4671669     0.018878207
      3988.33       1.5035020     0.018813427
      3992.32       1.5411242     0.018748591
      3996.31       1.5770238     0.018683367
      4000.31       1.6068680     0.018618108
      4004.31       1.6353304     0.018553313
      4008.31       1.6625683     0.018488871
      4012.32       1.6727725     0.018424328
      4016.33       1.6738091     0.018360226
      4020.35       1.6819769     0.018295873
      4024.37       1.6835327     0.018231298
      4028.40       1.6908361     0.018167182
      4032.42       1.6950460     0.018102927
      4036.46       1.7034472     0.018039005
      4040.50       1.7070389     0.017975482
      4044.54       1.7076705     0.017911876
      4048.58       1.7019346     0.017848685
      4052.63       1.6891536     0.017785025
      4056.68       1.6822107     0.017721808
      4060.74       1.6839071     0.017658989
      4064.80       1.6776498     0.017596157
      4068.86       1.6491888     0.017533664
      4072.93       1.5973796     0.017252059
      4077.01       1.5528379     0.017190741
      4081.08       1.5193783     0.017129477
      4085.17       1.4820936     0.017068666
      4089.25       1.4490622     0.017008398
      4093.34       1.4305012     0.016948023
      4097.43       1.4069590     0.016888236
      4101.53       1.3935360     0.016828569
      4105.63       1.3874680     0.016769149
      4109.74       1.3700234     0.016710317
      4113.85       1.3721822     0.016651499
      4117.96       1.3750076     0.016593359
      4122.08       1.3816009     0.016535772
      4126.20       1.3986208     0.016478331
      4130.33       1.4121351     0.016207654
      4134.46       1.4358854     0.016148346
      4138.59       1.4594587     0.016089143
      4142.73       1.4652259     0.016030990
      4146.88       1.4689523     0.015972940
      4151.02       1.4694220     0.015915109
      4155.18       1.4774478     0.015858173
      4159.33       1.4971733     0.015988099
      4163.49       1.5090203     0.015931153
      4167.65       1.5261882     0.015874940
      4171.82       1.5388521     0.015624060
      4175.99       1.5404788     0.015564968
      4180.17       1.5489393     0.015506816
      4184.35       1.5552542     0.015448589
      4188.54       1.5482777     0.015391589
      4192.72       1.5543271     0.015334892
      4196.92       1.5580849     0.015278584
      4201.11       1.5527827     0.015223545
      4205.31       1.5522429     0.015168808
      4209.52       1.5532685     0.014932383
      4213.73       1.5582782     0.015051699
      4217.94       1.5626873     0.014993928
      4222.16       1.5663558     0.014936587
      4226.38       1.5795404     0.014880633
      4230.61       1.5972492     0.014825196
      4234.84       1.6163629     0.014770428
      4239.08       1.6361222     0.014538906
      4243.32       1.6518558     0.014486312
      4247.56       1.6684594     0.014434647
      4251.81       1.6828108     0.014383995
      4256.06       1.6946897     0.014491456
      4260.32       1.7109110     0.014436160
      4264.58       1.7198924     0.014381651
      4268.84       1.7200617     0.014155267
      4273.11       1.7172702     0.014103449
      4277.38       1.7076745     0.014052758
      4281.66       1.7008137     0.014002842
      4285.94       1.6967202     0.013954051
      4290.23       1.6920263     0.013906179
      4294.52       1.6837004     0.013831574
      4298.81       1.6750648     0.013779934
      4303.11       1.6604567     0.013729561
      4307.42       1.6534452     0.013680074
      4311.72       1.6396436     0.013631851
      4316.04       1.6106554     0.013584689
      4320.35       1.5811296     0.013364127
      4324.67       1.5596526     0.013462926
      4329.00       1.5533950     0.013413279
      4333.33       1.5482054     0.013364649
      4337.66       1.5501498     0.013317412
      4342.00       1.5682008     0.013106064
      4346.34       1.5794416     0.013055580
      4350.69       1.5882311     0.013006180
      4355.04       1.5970959     0.013103534
      4359.39       1.6110704     0.013056266
      4363.75       1.6312662     0.012852103
      4368.12       1.6508788     0.012801787
      4372.48       1.6715236     0.012752744
      4376.86       1.6917897     0.012704945
      4381.23       1.7065147     0.012800642
      4385.61       1.7082559     0.012602023
      4390.00       1.7105844     0.012551801
      4394.39       1.7029547     0.012503366
      4398.79       1.6886081     0.012456361
      4403.18       1.6800583     0.012267190
      4407.59       1.6690761     0.012355051
      4412.00       1.6688413     0.012305744
      4416.41       1.6606811     0.012257973
      4420.82       1.6574339     0.012212113
      4425.25       1.6495766     0.012026914
      4429.67       1.6392893     0.012111614
      4434.10       1.6236505     0.012063369
      4438.54       1.6107242     0.012017018
      4442.97       1.5973498     0.011833807
      4447.42       1.5856495     0.011791478
      4451.86       1.5789495     0.011871736
      4456.32       1.5796777     0.011825327
      4460.77       1.5832480     0.011644329
      4465.24       1.5940031     0.011602007
      4469.70       1.6140970     0.011561734
      4474.17       1.6435709     0.011636335
      4478.65       1.6799359     0.011457598
      4483.12       1.7266654     0.011415992
      4487.61       1.7845557     0.011376147
      4492.09       1.8517584     0.011317220
      4496.59       1.9194370     0.011274016
      4501.08       1.9863289     0.011232987
      4505.58       2.0529326     0.011193642
      4510.09       2.1213302     0.011018363
      4514.60       2.1841281     0.011093477
      4519.12       2.2349456     0.011053159
      4523.63       2.2788428     0.011014814
      4528.16       2.3147383     0.010841453
      4532.69       2.3438014     0.010915532
      4537.22       2.3703568     0.010876116
      4541.76       2.3848917     0.010708895
      4546.30       2.3987003     0.010667184
      4550.85       2.4034724     0.010740656
      4555.40       2.4021248     0.010578785
      4559.95       2.3960667     0.010536253
      4564.51       2.3846887     0.010495891
      4569.08       2.3759225     0.010569222
      4573.65       2.3674755     0.010407545
      4578.22       2.3535765     0.010366652
      4582.80       2.3331028     0.010328119
      4587.38       2.3096371     0.010280595
      4591.97       2.2813694     0.010239291
      4596.56       2.2513349     0.010200350
      4601.16       2.2127565     0.010155128
      4605.76       2.1743242     0.010113576
      4610.37       2.1326411     0.010074536
      4614.98       2.0923942    0.0099262737
      4619.59       2.0557633    0.0099896971
      4624.21       2.0206980    0.0099505749
      4628.84       1.9809929    0.0098034764
      4633.47       1.9441056    0.0098671103
      4638.10       1.9081017    0.0098282100
      4642.74       1.8732909    0.0096827922
      4647.38       1.8380594    0.0097463319
      4652.03       1.8074327    0.0097074036
      4656.68       1.7854591    0.0095636438
      4661.34       1.7690040    0.0095306982
      4666.00       1.7505875    0.0095882449
      4670.67       1.7327004    0.0094463535
      4675.33       1.7169643    0.0094139936
      4680.01       1.7046203    0.0093650676
      4684.69       1.6922004    0.0093305706
      4689.38       1.6812865    0.0092990394
      4694.07       1.6699313    0.0092504615
      4698.76       1.6601568    0.0092168616
      4703.46       1.6536966    0.0091859968
      4708.16       1.6500368    0.0091372817
      4712.87       1.6469858    0.0091045503
      4717.58       1.6444276    0.0089693130
      4722.30       1.6425650    0.0090259311
      4727.03       1.6399528    0.0089943917
      4731.75       1.6346561    0.0088595658
      4736.48       1.6284790    0.0089162477
      4741.22       1.6187656    0.0087859486
      4745.96       1.6111550    0.0087514850
      4750.71       1.6010089    0.0088086091
      4755.46       1.5875901    0.0086783852
      4760.22       1.5801639    0.0086451948
      4764.97       1.5698331    0.0086070155
      4769.74       1.5584796    0.0085726150
      4774.51       1.5444941    0.0086280211
      4779.29       1.5325150    0.0085015165
      4784.07       1.5237037    0.0084688896
