# starting wavelength =        3202.0000
# ending wavelength =        9224.8700
# O2 telluric scale =        0
# O2 telluric shift =        0
# H2O telluric scale =        0
# H2O telluric shift =        0
      3204.23      0.27742811     0.027402928
      3207.44      0.27872744     0.024528338
      3210.64      0.27653958     0.021058520
      3213.85      0.27428516     0.018383759
      3217.07      0.27714772     0.015722895
      3220.28      0.27575983     0.014210771
      3223.51      0.27660585     0.013356801
      3226.73      0.27929095     0.012374835
      3229.96      0.27421625     0.011600598
      3233.19      0.27420694     0.010840677
      3236.42      0.27575202     0.010391058
      3239.66      0.27694873     0.010136865
      3242.90      0.27906730    0.0098132915
      3246.14      0.27905063    0.0095390725
      3249.39      0.28040094    0.0093220527
      3252.64      0.27623539    0.0091274768
      3255.89      0.27566866    0.0089539172
      3259.14      0.27259415    0.0088646241
      3262.40      0.27005089    0.0087189422
      3265.67      0.27156490    0.0087191282
      3268.93      0.26943344    0.0087266604
      3272.20      0.26534561    0.0087352779
      3275.47      0.26442744    0.0088090107
      3278.75      0.26350757    0.0087432386
      3282.03      0.25678572    0.0087514533
      3285.31      0.24897535    0.0088258453
      3288.60      0.23829817    0.0088325565
      3291.88      0.22952196    0.0087670863
      3295.18      0.23327130    0.0088423939
      3298.47      0.23519438    0.0088486358
      3301.77      0.23155038    0.0089232247
      3305.07      0.22538853    0.0089316526
      3308.38      0.22419828    0.0088645983
      3311.69      0.22794230    0.0089388394
      3315.00      0.22999690    0.0089464995
      3318.31      0.23205114    0.0089553138
      3321.63      0.23302063    0.0089541971
      3324.95      0.23099322    0.0089613887
      3328.28      0.23126412    0.0089694354
      3331.61      0.23585168    0.0090468735
      3334.94      0.23727401    0.0090534260
      3338.27      0.23636924    0.0089834622
      3341.61      0.23623904    0.0090625708
      3344.95      0.23687812    0.0090682042
      3348.30      0.23461057    0.0090749287
      3351.65      0.23887073    0.0090782906
      3355.00      0.24771623    0.0090833185
      3358.35      0.25200641    0.0090890351
      3361.71      0.24992767    0.0091673416
      3365.07      0.25049384    0.0091750299
      3368.44      0.24066112    0.0091835088
      3371.81      0.23821868    0.0091809774
      3375.18      0.24417188    0.0091877591
      3378.56      0.24533628    0.0091952955
      3381.94      0.24602315    0.0092768271
      3385.32      0.24005760    0.0092825435
      3388.70      0.23752762    0.0092074215
      3392.09      0.23811758    0.0092915408
      3395.48      0.23794450    0.0092963577
      3398.88      0.23022606    0.0093019213
      3402.28      0.23144228    0.0093083586
      3405.68      0.23349652    0.0093915068
      3409.09      0.23713460    0.0093154390
      3412.49      0.23658110    0.0093207165
      3415.91      0.23693252    0.0094027683
      3419.32      0.23847464    0.0094097246
      3422.74      0.24898478    0.0094173063
      3426.17      0.25308687    0.0095016027
      3429.59      0.25466867    0.0094207876
      3433.02      0.25943545    0.0094273102
      3436.45      0.25681278    0.0095151862
      3439.89      0.25476891    0.0095197144
      3443.33      0.25170791    0.0095248848
      3446.78      0.25435587    0.0095308091
      3450.22      0.25739137    0.0095334920
      3453.67      0.25336414    0.0095375135
      3457.13      0.25334926    0.0095421408
      3460.58      0.25657757    0.0096281204
      3464.04      0.26165639    0.0096340595
      3467.51      0.26095410    0.0096407507
      3470.98      0.25867763    0.0096479842
      3474.45      0.25813959    0.0097362004
      3477.92      0.25755266    0.0096496532
      3481.40      0.26508082    0.0096555974
      3484.88      0.26798802    0.0096620354
      3488.37      0.26430054    0.0097526355
      3491.86      0.25977357    0.0097571113
      3495.35      0.25764471    0.0097619484
      3498.84      0.25936563    0.0098534068
      3502.34      0.25997722    0.0098596358
      3505.84      0.25782916    0.0097730635
      3509.35      0.25832748    0.0097771105
      3512.86      0.25307502    0.0098676805
      3516.37      0.24909004    0.0098729573
      3519.89      0.24955583    0.0098786784
      3523.41      0.25438706    0.0098850367
      3526.93      0.25724640    0.0099796811
      3530.46      0.24975999    0.0099839612
      3533.99      0.24355873    0.0099888384
      3537.53      0.24121130    0.0099940969
      3541.06      0.23604123    0.0099959449
      3544.60      0.23014652    0.0099989786
      3548.15      0.22303647     0.010002387
      3551.70      0.22877446     0.010006339
      3555.25      0.22819514     0.010102085
      3558.80      0.23020119     0.010107319
      3562.36      0.23209705     0.010112730
      3565.92      0.23718748     0.010118657
      3569.49      0.23464434     0.010218821
      3573.06      0.23987955     0.010222341
      3576.64      0.23850909     0.010226634
      3580.21      0.24581914     0.010231060
      3583.79      0.25033984     0.010333216
      3587.38      0.25569728     0.010236690
      3590.96      0.25947425     0.010239621
      3594.55      0.26647935     0.010242831
      3598.15      0.27609813     0.010246281
      3601.75      0.28233096     0.010347251
      3605.35      0.28456966     0.010351552
      3608.96      0.28941611     0.010356309
      3612.56      0.29175035     0.010361369
      3616.18      0.29414190     0.010470033
      3619.79      0.29020352     0.010472892
      3623.41      0.28547526     0.010476144
      3627.04      0.27635163     0.010479354
      3630.66      0.27261124     0.010483175
      3634.29      0.26702315     0.010590707
      3637.93      0.26132134     0.010595176
      3641.57      0.25559014     0.010600035
      3645.21      0.25816967     0.010604984
      3648.86      0.25507569     0.010610276
      3652.50      0.24730169     0.010720811
      3656.16      0.24472577     0.010723949
      3659.81      0.24444422     0.010727259
      3663.47      0.24369982     0.010730700
      3667.14      0.25178071     0.010734590
      3670.80      0.25987832     0.010849422
      3674.48      0.26373086     0.010853620
      3678.15      0.26892435     0.010858081
      3681.83      0.28461259     0.010862846
      3685.51      0.29765773     0.010867688
      3689.20      0.30772978     0.010984706
      3692.88      0.31709747     0.010987222
      3696.58      0.32383866     0.010990110
      3700.27      0.33210215     0.010993303
      3703.98      0.33688698     0.010996444
      3707.68      0.34157203     0.011000132
      3711.39      0.34363492     0.011121902
      3715.10      0.35055727     0.011125800
      3718.81      0.35063223     0.011129707
      3722.53      0.36056509     0.011133555
      3726.26      0.36558803     0.011137645
      3729.98      0.37545406     0.011264590
      3733.71      0.38386141     0.011266652
      3737.45      0.38724830     0.011268968
      3741.18      0.38742497     0.011271245
      3744.93      0.38824337     0.011273464
      3748.67      0.39260869     0.011275912
      3752.42      0.39646697     0.011278288
      3756.17      0.39203031     0.011408050
      3759.93      0.39166525     0.011410612
      3763.69      0.38419132     0.011413420
      3767.45      0.37319552     0.011416488
      3771.22      0.36336535     0.011419059
      3774.99      0.34947047     0.011421861
      3778.77      0.33825023     0.011564971
      3782.54      0.33139658     0.011566246
      3786.33      0.31595212     0.011567628
      3790.11      0.30128811     0.011568868
      3793.90      0.29428369     0.011719575
      3797.70      0.28387172     0.011722313
      3801.50      0.28387248     0.011725152
      3805.30      0.27835297     0.011867970
      3809.10      0.27252273     0.011869567
      3812.91      0.26209372     0.011871095
      3816.73      0.25594540     0.011872752
      3820.54      0.26263654     0.011874556
      3824.36      0.26073614     0.011875702
      3828.19      0.26844384     0.011876979
      3832.02      0.26949065     0.011878341
      3835.85      0.26603763     0.011879591
      3839.68      0.27330004     0.011881385
      3843.52      0.28729565     0.011725016
      3847.37      0.30193250     0.011726290
      3851.22      0.31963512     0.011727423
      3855.07      0.33733270     0.011728215
      3858.92      0.35279087     0.011729056
      3862.78      0.36212070     0.011730285
      3866.64      0.37737337     0.011731473
      3870.51      0.38799484     0.011732402
      3874.38      0.39369035     0.011733260
      3878.26      0.40418898     0.011734124
      3882.13      0.42069475     0.011734864
      3886.02      0.44089732     0.011735283
      3889.90      0.46447674     0.011735765
      3893.79      0.49960842     0.011599874
      3897.69      0.52188848     0.011600587
      3901.59      0.54187262     0.011601027
      3905.49      0.56075453     0.011601655
      3909.39      0.58809492     0.011602038
      3913.30      0.62003041     0.011602152
      3917.22      0.65418920     0.011602818
      3921.13      0.68408306     0.011603221
      3925.06      0.71907918     0.011603807
      3928.98      0.74270846     0.011604174
      3932.91      0.75769031     0.011604357
      3936.84      0.76554059     0.011604730
      3940.78      0.77231024     0.011604879
      3944.72      0.77261743     0.011605679
      3948.67      0.77978895     0.011606275
      3952.61      0.79032545     0.011606705
      3956.57      0.80521707     0.011607483
      3960.52      0.82217284     0.011608127
      3964.48      0.83474881     0.011608736
      3968.45      0.84782258     0.011464018
      3972.42      0.85533507     0.011462916
      3976.39      0.85215663     0.011607979
      3980.37      0.86499324     0.011607141
      3984.35      0.87623280     0.011606274
      3988.33      0.89056388     0.011605242
      3992.32      0.90494840     0.011604565
      3996.31      0.92183703     0.011603757
      4000.31      0.93724338     0.011603634
      4004.31      0.94799755     0.011603434
      4008.31      0.94745746     0.011603186
      4012.32      0.94406615     0.011603292
      4016.33      0.94995411     0.011465867
      4020.35      0.95673089     0.011463053
      4024.37      0.96926492     0.011460911
      4028.40      0.97914713     0.011458830
      4032.42      0.99076290     0.011457004
      4036.46       1.0027564     0.011455561
      4040.50       1.0075467     0.011453728
      4044.54       1.0104164     0.011452344
      4048.58       1.0155692     0.011596864
      4052.63       1.0134361     0.011466447
      4056.68       1.0048705     0.011462536
      4060.74      0.98981394     0.011459069
      4064.80      0.96896084     0.011455372
      4068.86      0.93911850     0.011452174
      4072.93      0.91240900     0.011449448
      4077.01      0.87553136     0.011446535
      4081.08      0.83896501     0.011444879
      4085.17      0.79634781     0.011315189
      4089.25      0.76388998     0.011313843
      4093.34      0.73477299     0.011313059
      4097.43      0.70476881     0.011450130
      4101.53      0.67650304     0.011445654
      4105.63      0.65393074     0.011442062
      4109.74      0.63630539     0.011438601
      4113.85      0.62052037     0.011435788
      4117.96      0.60572017     0.011305642
      4122.08      0.59184552     0.011303833
      4126.20      0.58538522     0.011302403
      4130.33      0.57926792     0.011301630
      4134.46      0.57314495     0.011301703
      4138.59      0.56496230     0.011429597
      4142.73      0.55251132     0.011298275
      4146.88      0.54932601     0.011295521
      4151.02      0.54914743     0.011293239
      4155.18      0.54179719     0.011292039
      4159.33      0.53951501     0.011290923
      4163.49      0.53538261     0.011290994
      4167.65      0.53427210     0.011154613
      4171.82      0.53222718     0.011285837
      4175.99      0.53639426     0.011282797
      4180.17      0.53470740     0.011280701
      4184.35      0.53271272     0.011279292
      4188.54      0.53227532     0.011148643
      4192.72      0.52571460     0.011143862
      4196.92      0.52004319     0.011140059
      4201.11      0.52066256     0.011271308
      4205.31      0.52780960     0.011269162
      4209.52      0.53348414     0.011267826
      4213.73      0.54241208     0.011135956
      4217.94      0.54449127     0.011131062
      4222.16      0.55123071     0.011127227
      4226.38      0.56122446     0.011258317
      4230.61      0.56697740     0.011256345
      4234.84      0.57296842     0.011126265
      4239.08      0.58130427     0.011120766
      4243.32      0.58666732     0.011116178
      4247.56      0.59731671     0.011112821
      4251.81      0.61510554     0.011122676
      4256.06      0.62919845     0.011115267
      4260.32      0.63454874     0.011109149
      4264.58      0.63424039     0.011104034
      4268.84      0.63928002     0.011100290
      4273.11      0.63939460     0.010978743
      4277.38      0.63596283     0.011101799
      4281.66      0.64151490     0.011095560
      4285.94      0.64665370     0.011090549
      4290.23      0.64339287     0.010968262
      4294.52      0.64386444     0.010966251
      4298.81      0.63831618     0.011086733
      4303.11      0.63666823     0.011080941
      4307.42      0.62973425     0.010957662
      4311.72      0.62738769     0.010954688
      4316.04      0.62453173     0.010953601
      4320.35      0.62102984     0.011070565
      4324.67      0.62028045     0.010946441
      4329.00      0.62660502     0.010943031
      4333.33      0.63931739     0.010941400
      4337.66      0.64103080     0.011059164
      4342.00      0.64937908     0.010934409
      4346.34      0.65333304     0.010930991
      4350.69      0.66815914     0.010928900
      4355.04      0.67756055     0.010803858
      4359.39      0.68677328     0.010922401
      4363.75      0.70345982     0.010918696
      4368.12      0.71661860     0.010916460
      4372.48      0.72195814     0.010790979
      4376.86      0.73359623     0.010909521
      4381.23      0.73959945     0.010905635
      4385.61      0.73876268     0.010903908
      4390.00      0.73610724     0.010777216
      4394.39      0.73008702     0.010895679
      4398.79      0.72514421     0.010892305
      4403.18      0.71634089     0.010769423
      4407.59      0.70840945     0.010762751
      4412.00      0.70824056     0.010881636
      4416.41      0.70235463     0.010761844
      4420.82      0.69309803     0.010753858
      4425.25      0.69117547     0.010748026
      4429.67      0.68228203     0.010867652
      4434.10      0.67904031     0.010745065
      4438.54      0.67744991     0.010738152
      4442.97      0.67748090     0.010733432
      4447.42      0.67804875     0.010735984
      4451.86      0.67787861     0.010728184
      4456.32      0.67726439     0.010722400
      4460.77      0.68182874     0.010726624
      4465.24      0.69031061     0.010717751
      4469.70      0.69863067     0.010711395
      4474.17      0.71464093     0.010597016
      4478.65      0.72739185     0.010706953
      4483.12      0.75077387     0.010699951
      4487.61      0.77124811     0.010585315
      4492.09      0.79711646     0.010695844
      4496.59      0.83175261     0.010688424
      4501.08      0.86603759     0.010573386
      4505.58      0.90567789     0.010684249
      4510.09      0.94810387     0.010566202
      4514.60      0.98629652     0.010561455
      4519.12       1.0294300     0.010559727
      4523.63       1.0788679     0.010554120
      4528.16       1.1204142     0.010549407
      4532.69       1.1642552     0.010547774
      4537.22       1.2087766     0.010541581
      4541.76       1.2476920     0.010537101
      4546.30       1.2839886     0.010535562
      4550.85       1.3238048     0.010528628
      4555.40       1.3510259     0.010524593
      4559.95       1.3771548     0.010408407
      4564.51       1.3888127     0.010515573
      4569.08       1.4019222     0.010512195
      4573.65       1.4138776     0.010394765
      4578.22       1.4271840     0.010502559
      4582.80       1.4344356     0.010389290
      4587.38       1.4452709     0.010381088
      4591.97       1.4520356     0.010489514
      4596.56       1.4596640     0.010374349
      4601.16       1.4665309     0.010367065
      4605.76       1.4669813     0.010369345
      4610.37       1.4732474     0.010359795
      4614.98       1.4839893     0.010467004
      4619.59       1.4959492     0.010353148
      4624.21       1.5095676     0.010345065
      4628.84       1.5154703     0.010347931
      4633.47       1.5264513     0.010337345
      4638.10       1.5388590     0.010330922
      4642.74       1.5457588     0.010330833
      4647.38       1.5474073     0.010322068
      4652.03       1.5494516     0.010324813
      4656.68       1.5482046     0.010314191
      4661.34       1.5421565     0.010205366
      4666.00       1.5331106     0.010307063
      4670.67       1.5146406     0.010298383
      4675.33       1.4906293     0.010191833
      4680.01       1.4731161     0.010290013
      4684.69       1.4433132     0.010181671
      4689.38       1.4108149     0.010281789
      4694.07       1.3711395     0.010172001
      4698.76       1.3441358     0.010168732
      4703.46       1.3144875     0.010162775
      4708.16       1.2864708     0.010158073
      4712.87       1.2612811     0.010255834
      4717.58       1.2367481     0.010148086
      4722.30       1.2207748     0.010247271
      4727.03       1.2079096     0.010137940
      4731.75       1.1906022     0.010135297
      4736.48       1.1798154     0.010128289
      4741.22       1.1718335     0.010124478
      4745.96       1.1533228     0.010118747
      4750.71       1.1390400     0.010113926
      4755.46       1.1266695     0.010109137
      4760.22       1.1120644     0.010103440
      4764.97       1.0970278    0.0099948557
      4769.74       1.0838872     0.010093161
      4774.51       1.0660121    0.0099854660
      4779.29       1.0481473     0.010082766
      4784.07       1.0308658    0.0099757925
      4788.85       1.0211325     0.010072441
      4793.64       1.0097616    0.0099661847
      4798.43      0.99842587     0.010062436
      4803.23      0.98793746    0.0099565569
      4808.03      0.97842899    0.0099478256
      4812.84      0.97055124    0.0099465356
      4817.66      0.96478923    0.0099375636
      4822.48      0.95655704    0.0099365242
      4827.30      0.95590739    0.0099273594
      4832.12      0.95646885    0.0099261320
      4836.96      0.96005108    0.0099168184
      4841.79      0.97201087    0.0099155710
      4846.63      0.98620856    0.0099063493
      4851.48       1.0059663    0.0099049027
      4856.33       1.0256009    0.0098958553
      4861.19       1.0547183    0.0098940346
      4866.05       1.0809868    0.0098851831
      4870.92       1.1088533    0.0098831578
      4875.79       1.1356930    0.0097801428
      4880.66       1.1656239    0.0098722042
      4885.55       1.1916613    0.0097694521
      4890.43       1.2104460    0.0098607218
      4895.32       1.2268721    0.0097588375
      4900.22       1.2382267    0.0098494051
      4905.12       1.2396561    0.0097483017
      4910.02       1.2413731    0.0098381577
      4914.94       1.2384717    0.0097379073
      4919.85       1.2351641    0.0097326463
