# starting wavelength =        3675.8700
# ending wavelength =        9587.0900
# O2 telluric scale =        0
# O2 telluric shift =        0
# H2O telluric scale =        0
# H2O telluric shift =        0
      3678.15      0.41265015     0.019976537
      3681.83      0.40914356     0.018948001
      3685.51      0.39532046     0.014780443
      3689.20      0.37798363     0.013020351
      3692.88      0.36300530     0.012691429
      3696.58      0.34890961     0.010619950
      3700.27      0.33473391    0.0097501852
      3703.98      0.32209524    0.0096180712
      3707.68      0.30716458    0.0086345411
      3711.39      0.29447600    0.0082469500
      3715.10      0.28072276    0.0081429626
      3718.81      0.26930648    0.0076739817
      3722.53      0.25833978    0.0075148197
      3726.26      0.24984831    0.0074028059
      3729.98      0.24017968    0.0071621825
      3733.71      0.23086696    0.0071074716
      3737.45      0.21972352    0.0069901643
      3741.18      0.21090412    0.0068541383
      3744.93      0.20373345    0.0068538177
      3748.67      0.19806883    0.0068843617
      3752.42      0.18417517    0.0069185776
      3756.17      0.18005472    0.0068048053
      3759.93      0.17473755    0.0069523535
      3763.69      0.17342574    0.0069837461
      3767.45      0.16353092    0.0070189031
      3771.22      0.16296154    0.0071671184
      3774.99      0.16031886    0.0070500905
      3778.77      0.16897670    0.0070821610
      3782.54      0.17349303    0.0072280221
      3786.33      0.17102186    0.0072691257
      3790.11      0.17107740    0.0071465675
      3793.90      0.17396249    0.0071792031
      3797.70      0.17480159    0.0073278806
      3801.50      0.17302649    0.0073695443
      3805.30      0.17488889    0.0072420273
      3809.10      0.16926050    0.0073880586
      3812.91      0.17220081    0.0074260197
      3816.73      0.17261717    0.0074682355
      3820.54      0.17909869    0.0076264919
      3824.36      0.18140751    0.0074843073
      3828.19      0.19081563    0.0075226784
      3832.02      0.19770109    0.0075650716
      3835.85      0.20473649    0.0077226785
      3839.68      0.21484717    0.0075790304
      3843.52      0.22445213    0.0076173769
      3847.37      0.23572983    0.0077867308
      3851.22      0.25211859    0.0078176498
      3855.07      0.26838349    0.0078527365
      3858.92      0.28552140    0.0077104192
      3862.78      0.29809773    0.0078802206
      3866.64      0.31721865    0.0079107888
      3870.51      0.34189301    0.0079455626
      3874.38      0.35646728    0.0079461216
      3878.26      0.37831737    0.0079722935
      3882.13      0.39625299    0.0080026292
      3886.02      0.41660204    0.0081752871
      3889.90      0.43473374    0.0082155673
      3893.79      0.44969245    0.0080630108
      3897.69      0.46683616    0.0080925871
      3901.59      0.48457366    0.0082662824
      3905.49      0.50294869    0.0083060207
      3909.39      0.51754070    0.0083507984
      3913.30      0.52964395    0.0081812785
      3917.22      0.54275132    0.0083561569
      3921.13      0.55517918    0.0083946665
      3925.06      0.56947408    0.0084380850
      3928.98      0.58249840    0.0086230293
      3932.91      0.59356846    0.0084435339
      3936.84      0.60221246    0.0084810204
      3940.78      0.60622681    0.0085233470
      3944.72      0.60996708    0.0087126468
      3948.67      0.61710611    0.0087448895
      3952.61      0.62538195    0.0085657598
      3956.57      0.63341415    0.0087744870
      3960.52      0.64055719    0.0088001932
      3964.48      0.64499622    0.0088307146
      3968.45      0.64682404    0.0088660861
      3972.42      0.65227303    0.0088631955
      3976.39      0.65230566    0.0088874046
      3980.37      0.65409554    0.0089159718
      3984.35      0.65773573    0.0089489591
      3988.33      0.66130022    0.0091594378
      3992.32      0.66808054    0.0089729605
      3996.31      0.66999326    0.0089993544
      4000.31      0.67173627    0.0092022814
      4004.31      0.67944014    0.0092400714
      4008.31      0.68812083    0.0092830266
      4012.32      0.69880382    0.0090827118
      4016.33      0.70466191    0.0092845320
      4020.35      0.71701497    0.0093187897
      4024.37      0.72884952    0.0093585295
      4028.40      0.74189133    0.0094039691
      4032.42      0.75411080    0.0096222834
      4036.46      0.76066008    0.0093974128
      4040.50      0.76854239    0.0094337049
      4044.54      0.76779007    0.0094753492
      4048.58      0.77164559    0.0097055273
      4052.63      0.76626049    0.0097337089
      4056.68      0.76431089    0.0097675188
      4060.74      0.75995662    0.0095455814
      4064.80      0.75745812    0.0097894497
      4068.86      0.74561643    0.0098138354
      4072.93      0.72723390    0.0098435178
      4077.01      0.71039741     0.010087494
      4081.08      0.69821822    0.0098745497
      4085.17      0.68018604    0.0098944632
      4089.25      0.66327201    0.0099197586
      4093.34      0.64900968     0.010160445
      4097.43      0.63576606     0.010198356
      4101.53      0.62213427     0.010242622
      4105.63      0.60779496    0.0099980316
      4109.74      0.59403552     0.010234685
      4113.85      0.58047669     0.010267028
      4117.96      0.56815157     0.010305159
      4122.08      0.55559225     0.010349812
      4126.20      0.54445483     0.010622390
      4130.33      0.52926037     0.010649228
      4134.46      0.51713133     0.010370267
      4138.59      0.50546944     0.010408161
      4142.73      0.49015206     0.010705918
      4146.88      0.47609318     0.010726387
      4151.02      0.47016453     0.010752714
      4155.18      0.47104443     0.010784814
      4159.33      0.46507414     0.010795378
      4163.49      0.46306259     0.010808377
      4167.65      0.46058417     0.010827442
      4171.82      0.45897119     0.010852573
      4175.99      0.45545913     0.010883675
      4180.17      0.45280298     0.011179660
      4184.35      0.44887053     0.011226657
      4188.54      0.44511170     0.010926752
      4192.72      0.44158457     0.010949759
      4196.92      0.43862984     0.011236105
      4201.11      0.43201067     0.011273612
      4205.31      0.42700993     0.011318433
      4209.52      0.42134637     0.011370843
      4213.73      0.41678666     0.011684242
      4217.94      0.41704037     0.011331025
      4222.16      0.41621831     0.011364768
      4226.38      0.41972675     0.011405354
      4230.61      0.42178200     0.011764640
      4234.84      0.42662465     0.011782288
      4239.08      0.43218549     0.011807285
      4243.32      0.43967659     0.011838544
      4247.56      0.44763388     0.011876166
      4251.81      0.45057546     0.011867809
      4256.06      0.45608645     0.011880302
      4260.32      0.45885912     0.011899845
      4264.58      0.46063610     0.011926415
      4268.84      0.46290702     0.012275384
      4273.11      0.46420517     0.012319979
      4277.38      0.45949054     0.012373179
      4281.66      0.45773164     0.011994100
      4285.94      0.45486193     0.012014379
      4290.23      0.45248989     0.012041405
      4294.52      0.45016758     0.012394449
      4298.81      0.44828662     0.012440265
      4303.11      0.44605583     0.012090928
      4307.42      0.44623491     0.012105302
      4311.72      0.44874950     0.012125118
      4316.04      0.45095696     0.012151296
      4320.35      0.45227184     0.012506868
      4324.67      0.45820212     0.012550908
      4329.00      0.46096865     0.012198487
      4333.33      0.46364662     0.012212612
      4337.66      0.46405905     0.012231858
      4342.00      0.46009716     0.012256143
      4346.34      0.45065363     0.012286480
      4350.69      0.45158285     0.012653313
      4355.04      0.45424428     0.012304483
      4359.39      0.45910265     0.012316271
      4363.75      0.46228526     0.012333944
      4368.12      0.46561958     0.012356249
      4372.48      0.46753634     0.012383369
      4376.86      0.46847043     0.012416183
      4381.23      0.46763975     0.012409926
      4385.61      0.46767298     0.012418258
      4390.00      0.46972857     0.012432308
      4394.39      0.47182646     0.012451839
      4398.79      0.47168544     0.012475692
      4403.18      0.47016656     0.012503929
      4407.59      0.46710159     0.012132126
      4412.00      0.46459101     0.012520311
      4416.41      0.45634894     0.012529711
      4420.82      0.44621649     0.012544456
      4425.25      0.43266458     0.012564314
      4429.67      0.42335346     0.012588132
      4434.10      0.42749797     0.012615938
      4438.54      0.42814202     0.012240245
      4442.97      0.43230301     0.012628681
      4447.42      0.43219036     0.012637724
      4451.86      0.43457179     0.012651705
      4456.32      0.43836042     0.012670471
      4460.77      0.44273164     0.012692833
      4465.24      0.44873291     0.012309235
      4469.70      0.45590010     0.012338329
      4474.17      0.46512764     0.012371563
      4478.65      0.47665677     0.012742306
      4483.12      0.48934435     0.012754244
      4487.61      0.50450268     0.012770618
      4492.09      0.52328642     0.012789660
      4496.59      0.54553711     0.012812965
      4501.08      0.56988035     0.012427243
      4505.58      0.59519586     0.012456931
      4510.09      0.62308896     0.012490473
      4514.60      0.65013840     0.012853897
      4519.12      0.68200357     0.012866718
      4523.63      0.71452103     0.012881758
      4528.16      0.74437849     0.012900766
      4532.69      0.77159732     0.012508499
      4537.22      0.80018407     0.012533589
      4541.76      0.83055338     0.012561972
      4546.30      0.86234269     0.012593796
      4550.85      0.89031050     0.012960634
      4555.40      0.92078813     0.012970864
      4559.95      0.94815219     0.012984742
      4564.51      0.97283136     0.013002224
      4569.08      0.99485679     0.012605248
      4573.65       1.0157325     0.012628173
      4578.22       1.0352337     0.012654231
      4582.80       1.0534568     0.012681972
      4587.38       1.0683259     0.012712927
      4591.97       1.0821655     0.012747074
      4596.56       1.0976315     0.013081585
      4601.16       1.1124289     0.013096021
      4605.76       1.1283325     0.012693289
      4610.37       1.1402385     0.012712708
      4614.98       1.1504649     0.012733403
      4619.59       1.1611041     0.012756827
      4624.21       1.1731708     0.012782960
      4628.84       1.1869931     0.012811778
      4633.47       1.2010515     0.012843312
      4638.10       1.2093301     0.012877693
      4642.74       1.2111913     0.012776105
      4647.38       1.2130618     0.012789548
      4652.03       1.2117913     0.012805379
      4656.68       1.2051935     0.012823368
      4661.34       1.1929273     0.012843869
      4666.00       1.1755759     0.012866632
      4670.67       1.1538405     0.012891763
      4675.33       1.1289722     0.012918299
      4680.01       1.1037259     0.012946286
      4684.69       1.0793184     0.012976834
      4689.38       1.0574580     0.012573660
      4694.07       1.0334178     0.012888275
      4698.76       1.0062580     0.012902537
      4703.46      0.98058933     0.012918899
      4708.16      0.95809140     0.012935822
      4712.87      0.93863963     0.012954764
      4717.58      0.92332531     0.012975537
      4722.30      0.90960670     0.012998142
      4727.03      0.89793938     0.013022642
      4731.75      0.88965265     0.013049061
      4736.48      0.87987201     0.012664139
      4741.22      0.87624101     0.012672205
      4745.96      0.87064029     0.012681625
      4750.71      0.86376491     0.012692407
      4755.46      0.85312871     0.013011788
      4760.22      0.84143347     0.013026118
      4764.97      0.82853164     0.013042031
      4769.74      0.81344143     0.013059078
      4774.51      0.79534026     0.013077012
      4779.29      0.77241848     0.013096363
      4784.07      0.74489559     0.013117162
      4788.85      0.71902046     0.012753781
      4793.64      0.68908846     0.012759874
      4798.43      0.65986163     0.012766607
      4803.23      0.63220132     0.012773898
      4808.03      0.60335393     0.012782136
      4812.84      0.57470328     0.012791292
      4817.66      0.55209020     0.012801238
      4822.48      0.53350906     0.012811994
      4827.30      0.51933015     0.013136033
      4832.12      0.51183021     0.013149534
      4836.96      0.50851822     0.013163481
      4841.79      0.51157254     0.013178452
      4846.63      0.51588529     0.013194403
      4851.48      0.52127461     0.012848849
      4856.33      0.53102547     0.012852494
      4861.19      0.54169380     0.012856555
      4866.05      0.55320095     0.012860948
      4870.92      0.56351458     0.012866076
      4875.79      0.57284318     0.012871857
      4880.66      0.58228017     0.012878303
      4885.55      0.59033315     0.012885402
      4890.43      0.59913307     0.012892694
      4895.32      0.60779710     0.012900157
      4900.22      0.61418555     0.012908171
      4905.12      0.62361033     0.012916795
      4910.02      0.63867786     0.012925805
      4914.94      0.65573905     0.012935303
      4919.85      0.67656479     0.012944896
      4924.77      0.70121369     0.012588021
      4929.70      0.72642504     0.012948108
      4934.62      0.75681597     0.012949381
      4939.56      0.78860244     0.012951063
      4944.50      0.82350610     0.012953374
      4949.44      0.85954493     0.012956174
      4954.39      0.89579518     0.012958991
      4959.35      0.93303512     0.012961820
      4964.31      0.96691476     0.012965056
      4969.27      0.99637566     0.012968600
      4974.24       1.0227443     0.012972537
      4979.22       1.0428731     0.012976843
      4984.20       1.0560063     0.012981039
      4989.18       1.0599296     0.012985107
      4994.17       1.0548104     0.012989470
      4999.16       1.0423841     0.012994101
      5004.16       1.0223568     0.012998903
      5009.17      0.99337667     0.013003958
      5014.18      0.95816749     0.013008827
      5019.19      0.91756764     0.013013422
      5024.21      0.87393694     0.013018196
      5029.23      0.83887416     0.012656520
      5034.26      0.79704081     0.012661278
      5039.30      0.75734965     0.012666111
      5044.34      0.72171143     0.012670655
      5049.39      0.69125347     0.012675609
      5054.43      0.66809088     0.012680140
      5059.49      0.65091108     0.012684541
      5064.55      0.64116312     0.012689004
      5069.61      0.63747277     0.012693510
      5074.68      0.63770123     0.012697624
      5079.76      0.64270850     0.012702071
      5084.84      0.65122612     0.012706040
      5089.92      0.66287894     0.012709869
      5095.01      0.67720533     0.012713619
      5100.11      0.69351987     0.012717318
      5105.21      0.71022859     0.012720613
      5110.31      0.72643149     0.012724267
      5115.42      0.74137228     0.012727255
      5120.54      0.75668590     0.012730093
      5125.66      0.77320787     0.012732998
      5130.79      0.78899660     0.012735669
      5135.92      0.80383471     0.012737884
      5141.05      0.81766060     0.012740375
      5146.20      0.83087353     0.012742243
      5151.34      0.84361782     0.012744070
      5156.49      0.85547901     0.012745669
      5161.65      0.86674270     0.012747139
      5166.81      0.87607897     0.012748212
      5171.98      0.88489486     0.012749463
      5177.15      0.89382791     0.012750097
      5182.33      0.90155312     0.012750683
      5187.51      0.90770999     0.012751033
      5192.70      0.91402679     0.012751227
      5197.89      0.92005746     0.012751003
      5203.09      0.92490046     0.012751016
      5208.29      0.92994211     0.012750502
      5213.50      0.93637165     0.012749793
      5218.72      0.94573714     0.012748942
      5223.93      0.95892312     0.012748070
      5229.16      0.97416636     0.012746695
      5234.39      0.99098291     0.012745599
      5239.62       1.0102867     0.012743939
      5244.86       1.0320573     0.012742176
      5250.11       1.0543668     0.012740383
      5255.36       1.0778457     0.012738462
      5260.61       1.1028952     0.012736165
      5265.87       1.1271314     0.012734252
      5271.14       1.1499302     0.012731761
      5276.41       1.1719436     0.012729187
      5281.69       1.1937028     0.012726693
      5286.97       1.2136002     0.012724144
      5292.26       1.2340003     0.012721267
      5297.55       1.2515877     0.012718802
      5302.85       1.2681690     0.012715898
      5308.15       1.2845419     0.012712956
      5313.46       1.2986053     0.012710124
      5318.77       1.3116695     0.012707370
      5324.09       1.3246125     0.012704408
      5329.42       1.3350634     0.012422991
      5334.75       1.3468349     0.012420402
      5340.08       1.3594484     0.012417949
      5345.42       1.3724909     0.012415516
      5350.77       1.3848971     0.012412810
      5356.12       1.3967440     0.012410527
      5361.48       1.4058856     0.012408681
      5366.83       1.4126192     0.012406603
      5372.20       1.4155726     0.012404694
      5377.58       1.4152008     0.012402975
      5382.95       1.4096866     0.012401064
      5388.34       1.3997806     0.012399692
      5393.72       1.3866846     0.012398881
      5399.12       1.3679905     0.012397962
      5404.52       1.3462661     0.012397261
      5409.92       1.3205294     0.012396904
      5415.33       1.2921118     0.012396512
      5420.75       1.2643349     0.012396800
      5426.17       1.2401681     0.012397733
      5431.60       1.2218932     0.012398709
      5437.03       1.2054661     0.012391452
      5442.47       1.2099416     0.012385054
      5447.91       1.2241480     0.012379294
      5453.36       1.2484502     0.012374221
      5458.81       1.2813792     0.012369106
      5464.27       1.3214912     0.012364437
      5469.73       1.3675624     0.012360135
      5475.20       1.4145736     0.012355879
      5480.68       1.4607700     0.012352411
      5486.16       1.5044435     0.012349745
      5491.65       1.5449518     0.012347215
      5497.14       1.5792774     0.012345208
      5502.64       1.6054931     0.012343417
      5508.14       1.6204525     0.012342525
      5513.65       1.6177947     0.012049738
      5519.16       1.6068375     0.012041176
      5524.68       1.5860679     0.012032646
      5530.20       1.5574572     0.012024685
      5535.73       1.5206077     0.012016926
      5541.27       1.4765787     0.012009987
      5546.81       1.4211948     0.012312652
      5552.36       1.3710089     0.012306743
      5557.91       1.3228312     0.012301537
      5563.47       1.2773923     0.012296708
      5569.04       1.2371199     0.012292987
      5574.60       1.2028489     0.012290380
      5580.18       1.1802575     0.012016308
      5585.76       1.1615282     0.012004182
      5591.35       1.1491537     0.011992514
      5596.94       1.1419013     0.011981887
      5602.53       1.1375815     0.011972345
      5608.14       1.1327667     0.011963873
      5613.75       1.1240612     0.011955756
      5619.36       1.1108033     0.011948633
      5624.98       1.1002555     0.012248879
      5630.60       1.0760880     0.012243085
      5636.23       1.0445037     0.012238740
      5641.87      0.99911383     0.011974137
      5647.51      0.95625412     0.011959298
