# starting wavelength =        3646.7900
# ending wavelength =        8940.1300
# O2 telluric scale =        0
# O2 telluric shift =        0
# H2O telluric scale =        0
# H2O telluric shift =        0
      3648.86       2.0223523     0.067265668
      3652.50       1.8949531     0.058063541
      3656.16       1.7747428     0.045995703
      3659.81       1.6631488     0.043098915
      3663.47       1.5582820     0.035711008
      3667.14       1.4550917     0.034034933
      3670.80       1.3638472     0.029552905
      3674.48       1.2906045     0.028521748
      3678.15       1.2279566     0.025807818
      3681.83       1.1686664     0.025113026
      3685.51       1.1090740     0.024014841
      3689.20       1.0512405     0.022761557
      3692.88       1.0058720     0.022291994
      3696.58      0.98299617     0.021478480
      3700.27      0.96016358     0.021079115
      3703.98      0.93665131     0.020520969
      3707.68      0.92710559     0.020166483
      3711.39      0.92472875     0.019766168
      3715.10      0.92023457     0.019442780
      3718.81      0.92285650     0.019691473
      3722.53      0.93668033     0.019624422
      3726.26      0.94072272     0.019557773
      3729.98      0.94118716     0.019491482
      3733.71      0.94948164     0.019425514
      3737.45      0.97852480     0.019359857
      3741.18       1.0045988     0.019294476
      3744.93       1.0194890     0.019229754
      3748.67       1.0362462     0.019165380
      3752.42       1.0538275     0.019101723
      3756.17       1.0721209     0.019333175
      3759.93       1.0824749     0.019269085
      3763.69       1.0992019     0.019205198
      3767.45       1.1293357     0.019141502
      3771.22       1.1621326     0.019078019
      3774.99       1.1848069     0.019014754
      3778.77       1.2064077     0.018951714
      3782.54       1.2244655     0.018888925
      3786.33       1.2463612     0.018826349
      3790.11       1.2767486     0.018764005
      3793.90       1.3084857     0.018701919
      3797.70       1.3360122     0.018962397
      3801.50       1.3736461     0.018896655
      3805.30       1.4225890     0.018831233
      3809.10       1.4719593     0.018766161
      3812.91       1.5169340     0.018701413
      3816.73       1.5648766     0.018636982
      3820.54       1.6190595     0.018572910
      3824.36       1.6812621     0.018509068
      3828.19       1.7491317     0.018716266
      3832.02       1.8140877     0.018654600
      3835.85       1.8846379     0.018593145
      3839.68       1.9501448     0.018531782
      3843.52       2.0066773     0.018774851
      3847.37       2.0696574     0.018710566
      3851.22       2.1368668     0.018646490
      3855.07       2.2020883     0.018582601
      3858.92       2.2618966     0.018518877
      3862.78       2.3147311     0.018455291
      3866.64       2.3640807     0.018391826
      3870.51       2.4176200     0.018328449
      3874.38       2.4657343     0.018265138
      3878.26       2.5016170     0.018201874
      3882.13       2.5392554     0.018139133
      3886.02       2.5663637     0.018076562
      3889.90       2.5998616     0.018014156
      3893.79       2.6320624     0.017951912
      3897.69       2.6553696     0.018198515
      3901.59       2.6713277     0.018135553
      3905.49       2.6862089     0.018072748
      3909.39       2.7059185     0.018010529
      3913.30       2.7239752     0.017948261
      3917.22       2.7401857     0.017885991
      3921.13       2.7503554     0.018119044
      3925.06       2.7476963     0.018055809
      3928.98       2.7420332     0.017992667
      3932.91       2.7376519     0.017929623
      3936.84       2.7253732     0.017866708
      3940.78       2.7061918     0.017803958
      3944.72       2.6919402     0.017741365
      3948.67       2.6785730     0.017678955
      3952.61       2.6605786     0.017616751
      3956.57       2.6423959     0.017554736
      3960.52       2.6269073     0.017492930
      3964.48       2.6115130     0.017750257
      3968.45       2.5895003     0.017687755
      3972.42       2.5622072     0.017625490
      3976.39       2.5388117     0.017563416
      3980.37       2.5193105     0.017816085
      3984.35       2.4905909     0.017753333
      3988.33       2.4678328     0.017690754
      3992.32       2.4472711     0.017628449
      3996.31       2.4196199     0.017566109
      4000.31       2.4038246     0.017503977
      4004.31       2.3855931     0.017441977
      4008.31       2.3616334     0.017380059
      4012.32       2.3375864     0.017318191
      4016.33       2.3153530     0.017256350
      4020.35       2.2910563     0.017195196
      4024.37       2.2676547     0.017134262
      4028.40       2.2446124     0.017073582
      4032.42       2.2172910     0.017334105
      4036.46       2.1968900     0.017269135
      4040.50       2.1728670     0.017204338
      4044.54       2.1499322     0.017139739
      4048.58       2.1317841     0.017075408
      4052.63       2.1144602     0.017376026
      4056.68       2.0986282     0.017315217
      4060.74       2.0866658     0.017255348
      4064.80       2.0787219     0.017195571
      4068.86       2.0667157     0.017135954
      4072.93       2.0575425     0.017380384
      4077.01       2.0495243     0.017314409
      4081.08       2.0405669     0.017248761
      4085.17       2.0392521     0.017183418
      4089.25       2.0419335     0.017118495
      4093.34       2.0413459     0.017054011
      4097.43       2.0379632     0.016990003
      4101.53       2.0293833     0.016926507
      4105.63       2.0136259     0.016863731
      4109.74       1.9989471     0.017164389
      4113.85       1.9956429     0.017101240
      4117.96       1.9907502     0.017038571
      4122.08       1.9829531     0.016976568
      4126.20       1.9687898     0.016915154
      4130.33       1.9571051     0.016854305
      4134.46       1.9469392     0.016794013
      4138.59       1.9417666     0.016734227
      4142.73       1.9454422     0.016674948
      4146.88       1.9488220     0.016973047
      4151.02       1.9505047     0.016903503
      4155.18       1.9522884     0.016834685
      4159.33       1.9659990     0.016766685
      4163.49       1.9766110     0.016699404
      4167.65       1.9841664     0.016632825
      4171.82       2.0013222     0.016567312
      4175.99       2.0166407     0.016899132
      4180.17       2.0151493     0.016833365
      4184.35       2.0143762     0.016768567
      4188.54       2.0174174     0.016704789
      4192.72       2.0234848     0.016642047
      4196.92       2.0287236     0.016580356
      4201.11       2.0271747     0.016519764
      4205.31       2.0259212     0.016460290
      4209.52       2.0223063     0.016401986
      4213.73       2.0179959     0.016345654
      4217.94       2.0150864     0.015877671
      4222.16       2.0129438     0.015810573
      4226.38       2.0049805     0.015744516
      4230.61       1.9877711     0.015679599
      4234.84       1.9674026     0.015615876
      4239.08       1.9504477     0.015553455
      4243.32       1.9321409     0.015863963
      4247.56       1.9153387     0.015802579
      4251.81       1.8967419     0.015742728
      4256.06       1.8712629     0.015684489
      4260.32       1.8449767     0.015627841
      4264.58       1.8245718     0.015202296
      4268.84       1.8033412     0.015134937
      4273.11       1.7801963     0.015069109
      4277.38       1.7545781     0.015004621
      4281.66       1.7266170     0.014941515
      4285.94       1.6970540     0.014879778
      4290.23       1.6646484     0.014819298
      4294.52       1.6306868     0.014760011
      4298.81       1.5986769     0.014703017
      4303.11       1.5598475     0.014998352
      4307.42       1.5230688     0.014604278
      4311.72       1.4958258     0.014535866
      4316.04       1.4735781     0.014469279
      4320.35       1.4584469     0.014404558
      4324.67       1.4486654     0.014341582
      4329.00       1.4389512     0.014280437
      4333.33       1.4262436     0.014221148
      4337.66       1.4175381     0.014163679
      4342.00       1.4116731     0.014108080
      4346.34       1.4148580     0.013745820
      4350.69       1.4156819     0.014010596
      4355.04       1.4190970     0.013944035
      4359.39       1.4310676     0.013879181
      4363.75       1.4458885     0.013816210
      4368.12       1.4618336     0.013755242
      4372.48       1.4810062     0.013696259
      4376.86       1.5037321     0.013639364
      4381.23       1.5280229     0.013286216
      4385.61       1.5515111     0.013234967
      4390.00       1.5776483     0.013185736
      4394.39       1.6117813     0.013422527
      4398.79       1.6440999     0.013359008
      4403.18       1.6754911     0.013298035
      4407.59       1.7001181     0.013239479
      4412.00       1.7194495     0.013183366
      4416.41       1.7371900     0.012840896
      4420.82       1.7577483     0.012790859
      4425.25       1.7794532     0.012742929
      4429.67       1.8018065     0.012697116
      4434.10       1.8164530     0.012911441
      4438.54       1.8378550     0.012850667
      4442.97       1.8665278     0.012793015
      4447.42       1.8942531     0.012457548
      4451.86       1.9151810     0.012406749
      4456.32       1.9375453     0.012358288
      4460.77       1.9584323     0.012312215
      4465.24       1.9756496     0.012268561
      4469.70       1.9924212     0.012468792
      4474.17       2.0075624     0.012410887
      4478.65       2.0274265     0.012083465
      4483.12       2.0510206     0.012032964
      4487.61       2.0710622     0.011985016
      4492.09       2.0902923     0.011939643
      4496.59       2.1084499     0.011897376
      4501.08       2.1253109     0.011857469
      4505.58       2.1482842     0.011770031
      4510.09       2.1666796     0.011717801
      4514.60       2.1827251     0.011668289
      4519.12       2.2001921     0.011621535
      4523.63       2.2163294     0.011577574
      4528.16       2.2317942     0.011536476
      4532.69       2.2435990     0.011498319
      4537.22       2.2492344     0.011408634
      4541.76       2.2504024     0.011358805
      4546.30       2.2492293     0.011311990
      4550.85       2.2457416     0.011268183
      4555.40       2.2398890     0.011227393
      4559.95       2.2345380     0.011189615
      4564.51       2.2296595     0.010873633
      4569.08       2.2217230     0.011058244
      4573.65       2.2131978     0.011011482
      4578.22       2.2056513     0.010967676
      4582.80       2.1948093     0.010926827
      4587.38       2.1841766     0.010633641
      4591.97       2.1793147     0.010582987
      4596.56       2.1739079     0.010535385
      4601.16       2.1644241     0.010716160
      4605.76       2.1544879     0.010673649
      4610.37       2.1417117     0.010634449
      4614.98       2.1236251     0.010347338
      4619.59       2.1068009     0.010298031
      4624.21       2.0820577     0.010251947
      4628.84       2.0499408     0.010428239
      4633.47       2.0148902     0.010387620
      4638.10       1.9722219     0.010116896
      4642.74       1.9323596     0.010066453
      4647.38       1.8916184     0.010019291
      4652.03       1.8470693    0.0099753330
      4656.68       1.7979102     0.010148011
      4661.34       1.7514070    0.0098895141
      4666.00       1.7095514    0.0098379306
      4670.67       1.6664401    0.0097899524
      4675.33       1.6246492    0.0097455432
      4680.01       1.5904669    0.0099130172
      4684.69       1.5574889    0.0096652125
      4689.38       1.5244769    0.0096136745
      4694.07       1.4974952    0.0095659221
      4698.76       1.4707078    0.0095218830
      4703.46       1.4426887    0.0094814424
      4708.16       1.4261529    0.0094450311
      4712.87       1.4028525    0.0093938288
      4717.58       1.3807247    0.0093464093
      4722.30       1.3624731    0.0093026991
      4727.03       1.3453449    0.0092626142
      4731.75       1.3294188    0.0092261321
      4736.48       1.3111999    0.0091756664
      4741.22       1.2946862    0.0091291880
      4745.96       1.2817340    0.0090866384
      4750.71       1.2670191    0.0088621161
      4755.46       1.2555968    0.0090103644
      4760.22       1.2434196    0.0089612985
      4764.97       1.2329101    0.0089163956
      4769.74       1.2259264    0.0088754987
      4774.51       1.2206150    0.0086570655
      4779.29       1.2188200    0.0087976182
      4784.07       1.2196215    0.0087508857
      4788.85       1.2181470    0.0087082223
      4793.64       1.2175663    0.0084914335
      4798.43       1.2245689    0.0084575163
      4803.23       1.2319525    0.0085886098
      4808.03       1.2414306    0.0085439967
      4812.84       1.2527252    0.0085036929
      4817.66       1.2657437    0.0082938156
      4822.48       1.2774686    0.0082625712
      4827.30       1.2905035    0.0083832873
      4832.12       1.3062762    0.0083421478
      4836.96       1.3223994    0.0081347508
      4841.79       1.3329061    0.0081029971
      4846.63       1.3420274    0.0080751115
      4851.48       1.3492985    0.0081846737
      4856.33       1.3488466    0.0079798280
      4861.19       1.3479258    0.0079476219
      4866.05       1.3434287    0.0079193049
      4870.92       1.3354584    0.0080295364
      4875.79       1.3122481    0.0078271832
      4880.66       1.2955104    0.0077947821
      4885.55       1.2791816    0.0077663974
      4890.43       1.2622995    0.0078766662
      4895.32       1.2479629    0.0076777780
      4900.22       1.2358909    0.0076455625
      4905.12       1.2250295    0.0076174513
      4910.02       1.2162608    0.0075934864
      4914.94       1.2144530    0.0075311809
      4919.85       1.2109336    0.0074995021
      4924.77       1.2062170    0.0074722604
      4929.70       1.2007403    0.0072803941
      4934.62       1.1967518    0.0073877936
      4939.56       1.1932222    0.0073568319
      4944.50       1.1902369    0.0073301132
      4949.44       1.1862878    0.0071406104
      4954.39       1.1877396    0.0072462302
      4959.35       1.1908005    0.0072164295
      4964.31       1.1931800    0.0071910146
      4969.27       1.1992547    0.0070036270
      4974.24       1.2064638    0.0071080152
      4979.22       1.2139773    0.0070799036
      4984.20       1.2188732    0.0069041357
      4989.18       1.2300234    0.0068700433
      4994.17       1.2448639    0.0069736177
      4999.16       1.2598331    0.0069473338
      5004.16       1.2764551    0.0067717089
      5009.17       1.2939627    0.0067393914
      5014.18       1.3120430    0.0068421264
      5019.19       1.3309849    0.0066759130
      5024.21       1.3457141    0.0066413951
      5029.23       1.3600249    0.0066112399
      5034.26       1.3765598    0.0067139138
      5039.30       1.3943146    0.0065467235
      5044.34       1.4102596    0.0065146222
      5049.39       1.4301640    0.0066136170
      5054.43       1.4473285    0.0064546940
      5059.49       1.4593065    0.0064207919
      5064.55       1.4692341    0.0063913916
      5069.61       1.4764261    0.0064910476
      5074.68       1.4837656    0.0063297506
      5079.76       1.4905237    0.0062987795
      5084.84       1.5000378    0.0063949691
      5089.92       1.5122641    0.0062402978
      5095.01       1.5211527    0.0062078898
      5100.11       1.5310906    0.0061800978
      5105.21       1.5453332    0.0061529375
      5110.31       1.5588926    0.0061192641
      5115.42       1.5711427    0.0060905104
      5120.54       1.5814425    0.0059501977
      5125.66       1.5912071    0.0060329514
      5130.79       1.6010421    0.0060033182
      5135.92       1.6055791    0.0058639503
      5141.05       1.6125478    0.0059485643
      5146.20       1.6206166    0.0059181542
      5151.34       1.6270434    0.0058924902
      5156.49       1.6280345    0.0058655208
      5161.65       1.6343656    0.0058343285
      5166.81       1.6414617    0.0058079226
      5171.98       1.6497514    0.0056758201
      5177.15       1.6583569    0.0057520287
      5182.33       1.6699022    0.0057254428
      5187.51       1.6824170    0.0055947046
      5192.70       1.6938597    0.0056714191
      5197.89       1.7066095    0.0056446439
      5203.09       1.7224221    0.0055154395
      5208.29       1.7330930    0.0055922558
      5213.50       1.7372065    0.0055656395
      5218.72       1.7382405    0.0054382046
      5223.93       1.7413676    0.0055147217
      5229.16       1.7415752    0.0054880445
      5234.39       1.7364692    0.0053621706
      5239.62       1.7304445    0.0053455255
      5244.86       1.7217721    0.0053084082
      5250.11       1.7156241    0.0052877533
      5255.36       1.7076978    0.0052715935
      5260.61       1.6953371    0.0052352586
      5265.87       1.6881330    0.0052152581
      5271.14       1.6818408    0.0051998000
      5276.41       1.6769704    0.0051639969
      5281.69       1.6683894    0.0051447112
      5286.97       1.6603948    0.0051300268
      5292.26       1.6586931    0.0050942880
      5297.55       1.6528245    0.0050758623
      5302.85       1.6459136    0.0050620128
      5308.15       1.6359575    0.0050258525
      5313.46       1.6264643    0.0050082544
      5318.77       1.6193660    0.0048912634
      5324.09       1.6168983    0.0049589361
      5329.42       1.6102379    0.0049426195
      5334.75       1.6041978    0.0048260500
      5340.08       1.5987820    0.0048938229
      5345.42       1.5946124    0.0048788240
      5350.77       1.5884645    0.0047624083
      5356.12       1.5813752    0.0048305990
      5361.48       1.5755016    0.0048171357
      5366.83       1.5729315    0.0047858943
      5372.20       1.5657389    0.0047691003
      5377.58       1.5567740    0.0046593982
      5382.95       1.5461415    0.0047242908
      5388.34       1.5384972    0.0047092035
      5393.72       1.5312112    0.0045989986
      5399.12       1.5223905    0.0046646435
      5404.52       1.5138641    0.0045608647
      5409.92       1.5068916    0.0045406377
      5415.33       1.4996538    0.0046072509
      5420.75       1.4970654    0.0045026090
      5426.17       1.4928025    0.0044843883
      5431.60       1.4856657    0.0044671982
      5437.03       1.4790284    0.0044463676
      5442.47       1.4745928    0.0045109486
      5447.91       1.4672133    0.0044106486
      5453.36       1.4574333    0.0043919814
      5458.81       1.4515030    0.0044577027
      5464.27       1.4461379    0.0043558296
      5469.73       1.4398421    0.0043395123
      5475.20       1.4312361    0.0043220587
      5480.68       1.4227409    0.0043034369
      5486.16       1.4145388    0.0042903240
      5491.65       1.4106051    0.0042694231
      5497.14       1.4052037    0.0042534916
      5502.64       1.4011008    0.0042375225
      5508.14       1.3951069    0.0042193254
      5513.65       1.3945326    0.0042072020
      5519.16       1.3923740    0.0041868258
      5524.68       1.3861850    0.0041714061
      5530.20       1.3733727    0.0041561891
      5535.73       1.3659595    0.0041386802
      5541.27       1.3594493    0.0040539614
      5546.81       1.3533605    0.0041077517
      5552.36       1.3476534    0.0040218774
      5557.91       1.3418581    0.0040785064
      5563.47       1.3387759    0.0040624990
      5569.04       1.3341896    0.0039806620
      5574.60       1.3302379    0.0040330662
      5580.18       1.3263167    0.0039501810
      5585.76       1.3219680    0.0040050071
      5591.35       1.3165849    0.0039210272
      5596.94       1.3141304    0.0039780857
      5602.53       1.3082375    0.0039620166
