# starting wavelength =        5215.0000
# ending wavelength =        9628.8100
# O2 telluric scale =        0
# O2 telluric shift =        0
# H2O telluric scale =        0
# H2O telluric shift =        0
      5218.72      0.81146403     0.017388316
      5223.93      0.82062300     0.011825492
      5229.16      0.83081152     0.010394733
      5234.39      0.84067135    0.0092140181
      5239.62      0.85164905    0.0096440755
      5244.86      0.86138542    0.0086536979
      5250.11      0.87064114    0.0078491422
      5255.36      0.87786247    0.0065897773
      5260.61      0.88602555    0.0062665901
      5265.87      0.89377934    0.0060408025
      5271.14      0.89863844    0.0060154967
      5276.41      0.90558801    0.0057880685
      5281.69      0.91221497    0.0056291446
      5286.97      0.91649659    0.0052993590
      5292.26      0.92261190    0.0052536876
      5297.55      0.92846925    0.0052346583
      5302.85      0.93145908    0.0050312263
      5308.15      0.93710499    0.0050004408
      5313.46      0.94137785    0.0051875731
      5318.77      0.94439566    0.0049736589
      5324.09      0.94936904    0.0051465032
      5329.42      0.95460102    0.0051450032
      5334.75      0.95636082    0.0049207105
      5340.08      0.95978335    0.0051001174
      5345.42      0.96527801    0.0051074437
      5350.77      0.95974972    0.0050660948
      5356.12      0.96586760    0.0050586990
      5361.48      0.96846311    0.0052434177
      5366.83      0.97602759    0.0050206749
      5372.20      0.98339787    0.0050223752
      5377.58      0.98954733    0.0051873525
      5382.95       1.0037614    0.0049801589
      5388.34       1.0112530    0.0051742470
      5393.72       1.0199658    0.0051378861
      5399.12       1.0387086    0.0051754000
      5404.52       1.0475406    0.0051177366
      5409.92       1.0564894    0.0050948023
      5415.33       1.0789044    0.0051111328
      5420.75       1.0869594    0.0050685529
      5426.17       1.0994795    0.0053091591
      5431.60       1.1129628    0.0050549203
      5437.03       1.1260234    0.0052760778
      5442.47       1.1307673    0.0050540985
      5447.91       1.1350683    0.0050061059
      5453.36       1.1454458    0.0052396754
      5458.81       1.1431092    0.0049977251
      5464.27       1.1480426    0.0052127500
      5469.73       1.1485834    0.0052114040
      5475.20       1.1407739    0.0051987641
      5480.68       1.1393770    0.0051773901
      5486.16       1.1367579    0.0051915401
      5491.65       1.1192829    0.0051558350
      5497.14       1.1150527    0.0051503986
      5502.64       1.0985822    0.0053749502
      5508.14       1.0880303    0.0051217514
      5513.65       1.0766261    0.0053912309
      5519.16       1.0710873    0.0053239717
      5524.68       1.0648755    0.0050965038
      5530.20       1.0566367    0.0053267406
      5535.73       1.0533948    0.0052859635
      5541.27       1.0464245    0.0053479834
      5546.81       1.0454239    0.0052766199
      5552.36       1.0464258    0.0056020975
      5557.91       1.0512014    0.0052834393
      5563.47       1.0551210    0.0055803179
      5569.04       1.0657747    0.0053081033
      5574.60       1.0691503    0.0052342273
      5580.18       1.0748824    0.0055560875
      5585.76       1.0832230    0.0052447486
      5591.35       1.0920300    0.0055390859
      5596.94       1.0967874    0.0055477061
      5602.53       1.1110001    0.0055391058
      5608.14       1.1149897    0.0055181105
      5613.75       1.1231061    0.0058589448
      5619.36       1.1273532    0.0055042032
      5624.98       1.1279276    0.0055127673
      5630.60       1.1304459    0.0057835403
      5636.23       1.1293274    0.0054861500
      5641.87       1.1267973    0.0058240537
      5647.51       1.1200622    0.0057382628
      5653.16       1.1078993    0.0058953576
      5658.82       1.0968215    0.0057525491
      5664.47       1.0784620    0.0060025396
      5670.14       1.0649906    0.0057935536
      5675.81       1.0501621    0.0057124575
      5681.48       1.0277773    0.0058631854
      5687.17       1.0118123    0.0057267327
      5692.85      0.97925117    0.0059654273
      5698.55      0.96332756    0.0057656353
      5704.25      0.94855686    0.0056921047
      5709.95      0.92202939    0.0058324861
      5715.66      0.91130391    0.0057056805
      5721.38      0.90035631    0.0059308256
      5727.10      0.89343263    0.0057434043
      5732.83      0.89617709    0.0054269965
      5738.56      0.89557090    0.0058076988
      5744.30      0.89474027    0.0056920237
      5750.04      0.90251693    0.0059038162
      5755.79      0.90535851    0.0057293028
      5761.55      0.91073508    0.0054292466
      5767.31      0.92018441    0.0057967825
      5773.08      0.92655177    0.0056961511
      5778.85      0.93665441    0.0058958431
      5784.63      0.94547585    0.0057409357
      5790.41      0.95227788    0.0054565787
      5796.21      0.95888837    0.0058059674
      5802.00      0.97229192    0.0054700692
      5807.81      0.97958911    0.0058869378
      5813.61      0.99117104    0.0057524552
      5819.43       1.0072475    0.0054800601
      5825.25       1.0234952    0.0057967152
      5831.07       1.0411446    0.0054811530
      5836.90       1.0602528    0.0058634802
      5842.74       1.0734980    0.0057520211
      5848.58       1.0915492    0.0059529328
      5854.43       1.1028063    0.0057880060
      5860.29       1.1124041    0.0054925646
      5866.15       1.1248955    0.0058397676
      5872.01       1.1316173    0.0054983881
      5877.89       1.1378198    0.0059119461
      5883.76       1.1429392    0.0057760177
      5889.65       1.1455355    0.0055039282
      5895.54       1.1456284    0.0058188224
      5901.43       1.1459971    0.0055072362
      5907.34       1.1458907    0.0058807928
      5913.24       1.1467387    0.0055213012
      5919.16       1.1437176    0.0059681559
      5925.08       1.1407312    0.0058122681
      5931.00       1.1373204    0.0055311666
      5936.93       1.1334004    0.0058691687
      5942.87       1.1258279    0.0055463853
      5948.81       1.1202608    0.0059464107
      5954.76       1.1107227    0.0055720526
      5960.72       1.1031351    0.0055731783
      5966.68       1.0923649    0.0058742779
      5972.64       1.0796403    0.0055854953
      5978.62       1.0684518    0.0059394142
      5984.60       1.0589318    0.0056077228
      5990.58       1.0473063    0.0060235254
      5996.57       1.0423995    0.0056395251
      6002.57       1.0341230    0.0056383963
      6008.57       1.0247042    0.0059492485
      6014.58       1.0154579    0.0056558710
      6020.60       1.0104716    0.0060181293
      6026.62       1.0028083    0.0056818083
      6032.65      0.99817947    0.0061039022
      6038.68      0.99229881    0.0057166545
      6044.72      0.99019251    0.0057165087
      6050.76      0.98701993    0.0060303989
      6056.81      0.98662983    0.0057376319
      6062.87      0.98606300    0.0061015381
      6068.93      0.99157805    0.0057673354
      6075.00      0.99238259    0.0061880661
      6081.08       1.0015451    0.0058047324
      6087.16       1.0055197    0.0058091491
      6093.25       1.0237076    0.0058498725
      6099.34       1.0274796    0.0058321429
      6105.44       1.0411987    0.0061891415
      6111.54       1.0470843    0.0058644278
      6117.66       1.0524738    0.0062745901
      6123.78       1.0488151    0.0059084720
      6129.90       1.0472980    0.0059216685
      6136.03       1.0406684    0.0059596387
      6142.17       1.0372649    0.0059508953
      6148.31       1.0288339    0.0063057674
      6154.46       1.0175431    0.0060050281
      6160.61       1.0044180    0.0064227034
      6166.77      0.99490982    0.0060773299
      6172.94      0.98985949    0.0061031165
      6179.11      0.97758288    0.0061504967
      6185.29      0.97375751    0.0061551618
      6191.48      0.97109585    0.0062095946
      6197.67      0.96866692    0.0061935168
      6203.87      0.97428905    0.0062521592
      6210.07      0.97447017    0.0062144795
      6216.28      0.97957897    0.0066136275
      6222.50      0.98085757    0.0062313857
      6228.72      0.98346417    0.0062543558
      6234.95      0.98930819    0.0062673141
      6241.19      0.99228318    0.0062698275
      6247.42      0.99680481    0.0063101225
      6253.67       1.0000718    0.0062920674
      6259.93       1.0013655    0.0063649402
      6266.19       1.0049625    0.0063260748
      6272.46       1.0087247    0.0063732409
      6278.73       1.0108279    0.0063682797
      6285.01       1.0149633    0.0063949262
      6291.29       1.0198450    0.0064180301
      6297.58       1.0242882    0.0064249916
      6303.88       1.0318081    0.0064764334
      6310.19       1.0366078    0.0064638272
      6316.50       1.0426090    0.0065431168
      6322.81       1.0469500    0.0065105521
      6329.14       1.0502292    0.0061759886
      6335.47       1.0543652    0.0065661168
      6341.80       1.0586406    0.0066045388
      6348.14       1.0648335    0.0066336021
      6354.49       1.0694174    0.0066527660
      6360.85       1.0741337    0.0067063201
      6367.21       1.0780040    0.0067068433
      6373.57       1.0784919    0.0067801759
      6379.95       1.0821065    0.0067621567
      6386.33       1.0849726    0.0068525661
      6392.72       1.0887282    0.0068156656
      6399.11       1.0922076    0.0064602491
      6405.51       1.0962917    0.0068668185
      6411.92       1.1007491    0.0069074154
      6418.32       1.1060712    0.0069220525
      6424.74       1.1108203    0.0069446802
      6431.17       1.1173723    0.0069845482
      6437.60       1.1221194    0.0069896732
      6444.04       1.1271484    0.0070488578
      6450.48       1.1312291    0.0070366078
      6456.94       1.1374644    0.0071168003
      6463.39       1.1413260    0.0070870304
      6469.85       1.1425463    0.0067075154
      6476.33       1.1483274    0.0071395059
      6482.80       1.1523205    0.0067764141
      6489.28       1.1543290    0.0071946936
      6495.77       1.1571290    0.0068497694
      6502.27       1.1598206    0.0072576697
      6508.77       1.1634980    0.0072804515
      6515.28       1.1654459    0.0073263425
      6521.80       1.1692174    0.0073331672
      6528.32       1.1731724    0.0073995148
      6534.85       1.1775091    0.0073905889
      6541.38       1.1834402    0.0069742309
      6547.92       1.1892104    0.0074506909
      6554.47       1.1960862    0.0070469745
      6561.03       1.2027495    0.0075137650
      6567.59       1.2085261    0.0071233185
      6574.16       1.2133111    0.0075799583
      6580.73       1.2166295    0.0072023639
      6587.31       1.2176794    0.0076491415
      6593.90       1.2168528    0.0072841239
      6600.50       1.2189182    0.0077213788
      6607.10       1.2119728    0.0073685328
      6613.70       1.2076176    0.0077952802
      6620.32       1.1996751    0.0074551627
      6626.94       1.1922156    0.0078717223
      6633.57       1.1867321    0.0078722877
      6640.20       1.1792709    0.0074165640
      6646.84       1.1684308    0.0079377452
      6653.49       1.1620370    0.0074917965
      6660.14       1.1533371    0.0080055772
      6666.80       1.1497152    0.0075688856
      6673.47       1.1443673    0.0080758267
      6680.14       1.1437377    0.0076481807
      6686.82       1.1415703    0.0081477485
      6693.51       1.1377115    0.0077510017
      6700.20       1.1371303    0.0082623887
      6706.90       1.1339892    0.0078557740
      6713.61       1.1318048    0.0083495285
      6720.32       1.1263733    0.0080442857
      6727.05       1.1202954    0.0085531616
      6733.77       1.1133023    0.0083272186
      6740.51       1.1065894    0.0088939412
      6747.25       1.0985865    0.0086585773
      6754.00       1.0893688    0.0092933390
      6760.75       1.0776867    0.0089492744
      6767.51       1.0679739    0.0088348673
      6774.28       1.0525514    0.0090991806
      6781.05       1.0424625    0.0089738669
      6787.84       1.0287988    0.0090767260
      6794.62       1.0190808    0.0089387041
      6801.42       1.0071570    0.0089643905
      6808.22      0.99845991    0.0088106191
      6815.03      0.98509983    0.0089505623
      6821.85      0.97730249    0.0087801108
      6828.67      0.96925433    0.0089189295
      6835.50      0.96365612    0.0087381929
      6842.33      0.95786163    0.0089312108
      6849.17      0.95457200    0.0087422582
      6856.02      0.95307476    0.0089603602
      6862.88      0.95239341    0.0087645570
      6869.74      0.95426356    0.0093124091
      6876.61      0.95658506    0.0088165519
      6883.49      0.95908650    0.0093892084
      6890.37      0.96519346    0.0088940111
      6897.27      0.97076928    0.0094718621
      6904.16      0.97952771    0.0089692794
      6911.07      0.98783416    0.0095412672
      6917.98      0.99746585    0.0090301130
      6924.89       1.0062226    0.0096031290
      6931.82       1.0125077    0.0090917854
      6938.75       1.0199690    0.0096684308
      6945.69       1.0214509    0.0091604873
      6952.64       1.0256243    0.0097321107
      6959.59       1.0257358    0.0092270029
      6966.55       1.0261370    0.0098027983
      6973.52       1.0252414    0.0092993159
      6980.49       1.0218620    0.0098767056
      6987.47       1.0179382    0.0093793072
      6994.46       1.0113392    0.0099698070
      7001.46       1.0045010    0.0094812420
      7008.46      0.99919017    0.0093926820
      7015.46      0.99042819    0.0096153996
      7022.48      0.98323017    0.0092471339
      7029.51      0.97669304    0.0098174431
      7036.53      0.96854625    0.0094636316
      7043.57      0.96299019     0.010090014
      7050.62      0.95748203    0.0097364141
      7057.66      0.95094519     0.010375005
      7064.72      0.94976588    0.0099679220
      7071.79      0.94458382     0.010577718
      7078.86      0.94659906     0.010138869
      7085.94      0.94766389     0.010688409
      7093.03      0.95200635     0.010245722
      7100.12      0.95766689     0.010736552
      7107.22      0.96418058     0.010300423
      7114.33      0.97116313     0.010795304
      7121.44      0.97868425     0.010361534
      7128.56      0.98626988     0.010914252
      7135.69      0.99331814     0.010457466
      7142.83       1.0015337     0.011017355
      7149.97       1.0057647     0.010547910
      7157.12       1.0106613     0.011042649
      7164.28       1.0079482     0.011267601
      7171.44       1.0085064     0.011028248
      7178.62       1.0006661     0.011274711
      7185.80       1.0010512     0.011040835
      7192.98      0.99461956     0.011226805
      7200.17      0.99574062     0.011001548
      7207.38      0.99225678     0.011181970
      7214.58      0.99427439     0.010966706
      7221.80      0.99552132     0.011163208
      7229.02      0.99879952     0.010959716
      7236.25       1.0039350     0.011170380
      7243.49       1.0093574     0.010979615
      7250.73       1.0209288     0.011200247
      7257.98       1.0282228     0.011023198
      7265.24       1.0456581     0.011226022
      7272.51       1.0574601     0.010663997
      7279.78       1.0698723     0.011257708
      7287.06       1.0769341     0.010714635
      7294.35       1.0837756     0.011302417
      7301.64       1.0842894     0.010775568
      7308.94       1.0857974     0.011356543
      7316.25       1.0823836     0.010845143
      7323.57       1.0822777     0.011413018
      7330.89       1.0800212     0.010918388
      7338.22       1.0779920     0.011478504
      7345.56       1.0769875     0.010998715
      7352.91       1.0721985     0.011544921
      7360.26       1.0717694     0.011081486
      7367.62       1.0641852     0.011616629
      7374.99       1.0637990     0.011168549
      7382.37       1.0589843     0.011690387
      7389.75       1.0525526     0.011260000
      7397.14       1.0471761     0.011473105
      7404.53       1.0396578     0.011472123
      7411.94       1.0347058     0.011760176
      7419.35       1.0263817     0.012481090
      7426.77       1.0157437     0.011814624
      7434.20       1.0005578     0.012843041
      7441.63      0.98865082     0.012430608
      7449.07      0.96915922     0.013903513
      7456.52      0.95215479     0.013609367
      7463.98      0.93315829     0.015489387
      7471.45      0.91005053     0.015281135
      7478.92      0.89069902     0.017505220
      7486.40      0.85977281     0.017086309
      7493.88      0.83716061     0.019265252
      7501.38      0.79716764     0.018223397
      7508.88      0.74746859     0.017943344
      7516.39      0.73082366     0.017937876
      7523.91      0.69357358     0.016538784
      7531.43      0.68237948     0.016552086
      7538.96      0.66676260     0.014977563
      7546.50      0.65848888     0.015124908
      7554.05      0.66724032     0.013907739
      7561.60      0.67224146     0.014049570
      7569.16      0.68921065     0.013179573
      7576.73      0.71003770     0.013698095
      7584.31      0.73428828     0.012928362
      7591.89      0.76938531     0.012816003
      7599.49      0.79222992     0.012779860
      7607.09      0.82575236     0.012735658
      7614.70      0.85080175     0.012731439
      7622.31      0.88165686     0.012743019
      7629.93      0.90746626     0.012766677
      7637.56      0.93693526     0.012796828
      7645.20      0.96182735     0.012848545
      7652.85      0.98809560     0.012869629
      7660.50       1.0126893     0.013522810
      7668.16       1.0347816     0.012954746
      7675.83       1.0576924     0.013080832
      7683.50       1.0773541     0.013047343
      7691.19       1.0990708     0.013149534
      7698.88       1.1155407     0.013147120
      7706.58       1.1305871     0.013223897
      7714.29       1.1437245     0.013253874
      7722.00       1.1544511     0.013310636
      7729.73       1.1651358     0.013374720
      7737.45       1.1746738     0.013409489
      7745.19       1.1756932     0.013572768
      7752.94       1.1835103     0.013522105
      7760.69       1.1824863     0.013655362
      7768.45       1.1895037     0.013640336
      7776.22       1.1948337     0.013726355
      7784.00       1.2015632     0.013748062
      7791.78       1.2084684     0.013799726
      7799.57       1.2163803     0.013224168
      7807.37       1.2213980     0.013879594
      7815.18       1.2293808     0.013270456
      7822.99       1.2381004     0.013965602
      7830.82       1.2481310     0.014081622
      7838.65       1.2526296     0.014068421
      7846.49       1.2585647     0.014152538
      7854.34       1.2609596     0.014181492
      7862.19       1.2614496     0.014232062
      7870.05       1.2609596     0.013632161
      7877.93       1.2605276     0.014314022
      7885.80       1.2586580     0.013672127
      7893.69       1.2525279     0.014402220
      7901.58       1.2461184     0.014496278
      7909.49       1.2406019     0.014501895
      7917.40       1.2380486     0.014550712
      7925.31       1.2316657     0.013956021
      7933.24       1.2243132     0.014636085
      7941.17       1.2134465     0.014013086
      7949.11       1.2021077     0.014758068
      7957.06       1.1906698     0.014946860
      7965.02       1.1766974     0.014937299
      7972.98       1.1601171     0.015138477
      7980.96       1.1440684     0.014667500
      7988.94       1.1262357     0.015429825
      7996.93       1.1090741     0.014926206
      8004.93       1.0865942     0.015788428
      8012.93       1.0632977     0.015219348
