# starting wavelength =        3488.7200
# ending wavelength =        9767.8300
# O2 telluric scale =        0
# O2 telluric shift =        0
# H2O telluric scale =        0
# H2O telluric shift =        0
      3491.86      0.33241389     0.010218138
      3495.35      0.32570744    0.0087518776
      3498.84      0.31760849    0.0079623880
      3502.34      0.30932355    0.0070012049
      3505.84      0.30127397    0.0060076666
      3509.35      0.29399568    0.0054737037
      3512.86      0.28740467    0.0050610906
      3516.37      0.28094553    0.0048319097
      3519.89      0.27427502    0.0045619021
      3523.41      0.26781083    0.0042786476
      3526.93      0.26317279    0.0041266030
      3530.46      0.25870515    0.0040029297
      3533.99      0.25464887    0.0039334157
      3537.53      0.25268240    0.0038433055
      3541.06      0.25131746    0.0037666028
      3544.60      0.25077917    0.0037061144
      3548.15      0.24857077    0.0036529555
      3551.70      0.24538260    0.0036255829
      3555.25      0.24186664    0.0035825242
      3558.80      0.23560619    0.0036204006
      3562.36      0.23082589    0.0036767719
      3565.92      0.22988994    0.0036742906
      3569.49      0.22891774    0.0037321243
      3573.06      0.22925527    0.0037687102
      3576.64      0.23528192    0.0038055540
      3580.21      0.23639569    0.0038236643
      3583.79      0.23506232    0.0038597633
      3587.38      0.23319394    0.0038961142
      3590.96      0.23181465    0.0039551227
      3594.55      0.22873476    0.0039499600
      3598.15      0.22721654    0.0040084540
      3601.75      0.22292125    0.0040450041
      3605.35      0.21743203    0.0040819643
      3608.96      0.21374000    0.0041421194
      3612.56      0.21181483    0.0041340494
      3616.18      0.21150257    0.0041704589
      3619.79      0.21035229    0.0042315977
      3623.41      0.20755505    0.0042673418
      3627.04      0.20751223    0.0042581522
      3630.66      0.20781896    0.0043203810
      3634.29      0.20898457    0.0043554578
      3637.93      0.21040296    0.0043908961
      3641.57      0.21222912    0.0044541029
      3645.21      0.21704242    0.0044428497
      3648.86      0.22088692    0.0045053953
      3652.50      0.22836805    0.0045409011
      3656.16      0.23825897    0.0045766958
      3659.81      0.24652024    0.0046414483
      3663.47      0.25570214    0.0046269848
      3667.14      0.26620385    0.0046620520
      3670.80      0.27178502    0.0047282930
      3674.48      0.27688400    0.0047625588
      3678.15      0.28291293    0.0047971524
      3681.83      0.28700575    0.0048146169
      3685.51      0.29411005    0.0048480659
      3689.20      0.30185607    0.0048818938
      3692.88      0.30819106    0.0049489053
      3696.58      0.31011295    0.0049837336
      3700.27      0.30901371    0.0050190504
      3703.98      0.30543002    0.0050331619
      3707.68      0.29802074    0.0050671418
      3711.39      0.29085190    0.0051016017
      3715.10      0.28406035    0.0051364067
      3718.81      0.27741972    0.0052055971
      3722.53      0.26712947    0.0052394011
      3726.26      0.25791807    0.0052176469
      3729.98      0.24731040    0.0052891143
      3733.71      0.23484383    0.0053219733
      3737.45      0.22253724    0.0053551172
      3741.18      0.21080237    0.0054270909
      3744.93      0.19950389    0.0054612675
      3748.67      0.19000245    0.0054366183
      3752.42      0.17911974    0.0055083160
      3756.17      0.16865781    0.0055414183
      3759.93      0.16200610    0.0055749278
      3763.69      0.15771416    0.0056087729
      3767.45      0.15339252    0.0056828590
      3771.22      0.15013165    0.0057155429
      3774.99      0.14787221    0.0056867999
      3778.77      0.14565387    0.0057641059
      3782.54      0.14219514    0.0057956999
      3786.33      0.14050785    0.0058275588
      3790.11      0.14160336    0.0059042223
      3793.90      0.14333997    0.0059371054
      3797.70      0.14485398    0.0059703539
      3801.50      0.14719582    0.0060038983
      3805.30      0.15081694    0.0060151215
      3809.10      0.15453537    0.0060470938
      3812.91      0.15976591    0.0060793584
      3816.73      0.16611687    0.0061118632
      3820.54      0.17324559    0.0061926264
      3824.36      0.17996352    0.0062237811
      3828.19      0.18800994    0.0062553089
      3832.02      0.19866014    0.0063375925
      3835.85      0.21039760    0.0063700218
      3839.68      0.22378867    0.0063322453
      3843.52      0.23865039    0.0063627644
      3847.37      0.25443815    0.0064448650
      3851.22      0.27315112    0.0064762604
      3855.07      0.29427184    0.0065078331
      3858.92      0.31799472    0.0065396453
      3862.78      0.34287197    0.0066258399
      3866.64      0.37087306    0.0066562901
      3870.51      0.40140801    0.0066870167
      3874.38      0.43374397    0.0067179307
      3878.26      0.46301838    0.0068064783
      3882.13      0.49293114    0.0068382052
      3886.02      0.51966974    0.0067918313
      3889.90      0.54729647    0.0068215177
      3893.79      0.57389496    0.0069096391
      3897.69      0.60082927    0.0069401948
      3901.59      0.62526475    0.0069708144
      3905.49      0.64710014    0.0070017085
      3909.39      0.66734992    0.0070951553
      3913.30      0.68440214    0.0071243208
      3917.22      0.69637814    0.0071539136
      3921.13      0.70327567    0.0071836623
      3925.06      0.70818721    0.0072781686
      3928.98      0.70721350    0.0073088040
      3932.91      0.70162349    0.0073393831
      3936.84      0.69367084    0.0073702507
      3940.78      0.68775684    0.0074678085
      3944.72      0.67889919    0.0074969190
      3948.67      0.66829233    0.0075263541
      3952.61      0.65759268    0.0075558777
      3956.57      0.64827422    0.0075854814
      3960.52      0.64485088    0.0075991066
      3964.48      0.63878828    0.0076267003
      3968.45      0.63594952    0.0076546265
      3972.42      0.63708836    0.0076828245
      3976.39      0.64086864    0.0077839112
      3980.37      0.64794468    0.0078126096
      3984.35      0.66210018    0.0078414278
      3988.33      0.68259440    0.0078703993
      3992.32      0.70967586    0.0078993485
      3996.31      0.73763021    0.0080098672
      4000.31      0.77378266    0.0080371269
      4004.31      0.81302184    0.0080645395
      4008.31      0.85329731    0.0080921705
      4012.32      0.89017241    0.0081196352
      4016.33      0.92036944    0.0082286163
      4020.35      0.94984527    0.0082567311
      4024.37      0.97277804    0.0082847740
      4028.40      0.98891597    0.0083132497
      4032.42      0.99768361    0.0083412599
      4036.46      0.99960238    0.0084605001
      4040.50      0.99110002    0.0084872357
      4044.54      0.97501369    0.0085136886
      4048.58      0.95131870    0.0085406307
      4052.63      0.92041123    0.0085671604
      4056.68      0.88619435    0.0086844893
      4060.74      0.84472392    0.0087116485
      4064.80      0.80082101    0.0087387018
      4068.86      0.75741025    0.0087660155
      4072.93      0.71565907    0.0087931393
      4077.01      0.67392565    0.0089394236
      4081.08      0.63926343    0.0090665875
      4085.17      0.60652094    0.0090946254
      4089.25      0.57602595    0.0091222819
      4093.34      0.54734095    0.0091502537
      4097.43      0.52069458    0.0091778601
      4101.53      0.49686718    0.0092054749
      4105.63      0.47575076    0.0093376783
      4109.74      0.45776256    0.0093633797
      4113.85      0.44141327    0.0093894871
      4117.96      0.42756150    0.0094154563
      4122.08      0.41743939    0.0094412585
      4126.20      0.40992608    0.0094675258
      4130.33      0.40463297    0.0094930459
      4134.46      0.40153133    0.0095190109
      4138.59      0.39940248    0.0095444519
      4142.73      0.39766765    0.0095699447
      4146.88      0.39607782    0.0094624113
      4151.02      0.39662747    0.0094870757
      4155.18      0.39736110    0.0095120452
      4159.33      0.39624342    0.0095366164
      4163.49      0.39295316    0.0095612121
      4167.65      0.38902238    0.0095858419
      4171.82      0.38476499    0.0096100254
      4175.99      0.38065435    0.0096344025
      4180.17      0.37706431    0.0096583145
      4184.35      0.37357798    0.0096821761
      4188.54      0.36984304    0.0097060332
      4192.72      0.36661321    0.0097293694
      4196.92      0.36509516    0.0097528699
      4201.11      0.36569774    0.0097758845
      4205.31      0.36865496    0.0097988366
      4209.52      0.37335030    0.0098217599
      4213.73      0.37943273    0.0098441221
      4217.94      0.38683642    0.0098667260
      4222.16      0.39581656    0.0098888253
      4226.38      0.40622372    0.0099108741
      4230.61      0.41630907    0.0099329705
      4234.84      0.42405809    0.0099545593
      4239.08      0.42985603    0.0099764599
      4243.32      0.43437050    0.0099974568
      4247.56      0.43870291     0.010018728
      4251.81      0.44167901     0.010039587
      4256.06      0.44263736     0.010060387
      4260.32      0.44164778     0.010081222
      4264.58      0.43953898     0.010101529
      4268.84      0.43621143     0.010122066
      4273.11      0.43280486     0.010142135
      4277.38      0.43013102     0.010162138
      4281.66      0.42768276     0.010182139
      4285.94      0.42582375     0.010201634
      4290.23      0.42553802     0.010221317
      4294.52      0.42675262     0.010240567
      4298.81      0.42943379     0.010259807
      4303.11      0.43328299     0.010279037
      4307.42      0.43861708     0.010182191
      4311.72      0.44267993     0.010200863
      4316.04      0.44653699     0.010219421
      4320.35      0.45086173     0.010237990
      4324.67      0.45442412     0.010256489
      4329.00      0.45723289     0.010274835
      4333.33      0.45940787     0.010293138
      4337.66      0.46141268     0.010311303
      4342.00      0.46251888     0.010329551
      4346.34      0.46284648     0.010347792
      4350.69      0.46304340     0.010366098
      4355.04      0.46335998     0.010384315
      4359.39      0.46333956     0.010402462
      4363.75      0.46250629     0.010420721
      4368.12      0.46159583     0.010316091
      4372.48      0.46028166     0.010331796
      4376.86      0.45784351     0.010347771
      4381.23      0.45395223     0.010363572
      4385.61      0.44874205     0.010379226
      4390.00      0.44255805     0.010395196
      4394.39      0.43461808     0.010547692
      4398.79      0.42643923     0.010563818
      4403.18      0.41826313     0.010580143
      4407.59      0.40962947     0.010596560
      4412.00      0.40069368     0.010494831
      4416.41      0.39309048     0.010508547
      4420.82      0.38672215     0.010522144
      4425.25      0.38094873     0.010535920
      4429.67      0.37695907     0.010549820
      4434.10      0.37569512     0.010563688
      4438.54      0.37780313     0.010577983
      4442.97      0.38314560     0.010592337
      4447.42      0.39160856     0.010606724
      4451.86      0.40278052     0.010506842
      4456.32      0.41650928     0.010655958
      4460.77      0.43253303     0.010667708
      4465.24      0.45095144     0.010679483
      4469.70      0.47226146     0.010691793
      4474.17      0.49636434     0.010704196
      4478.65      0.52348847     0.010716749
      4483.12      0.55431503     0.010613654
      4487.61      0.58677104     0.010626691
      4492.09      0.62178695     0.010640573
      4496.59      0.65872378     0.010654441
      4501.08      0.69686519     0.010798334
      4505.58      0.73434832     0.010809022
      4510.09      0.77038112     0.010820027
      4514.60      0.80411997     0.010713907
      4519.12      0.83471671     0.010725888
      4523.63      0.86242691     0.010738528
      4528.16      0.88726408     0.010751275
      4532.69      0.91042097     0.010765039
      4537.22      0.93232841     0.010778954
      4541.76      0.95273006     0.010797214
      4546.30      0.97118764     0.010807546
      4550.85      0.98717688     0.010818681
      4555.40       1.0010736     0.010830584
      4559.95       1.0128451     0.010842673
      4564.51       1.0246061     0.010855959
      4569.08       1.0363517     0.010741375
      4573.65       1.0499937     0.010883981
      4578.22       1.0672843     0.010893781
      4582.80       1.0867609     0.010904551
      4587.38       1.1072758     0.010916289
      4591.97       1.1304516     0.010804506
      4596.56       1.1509464     0.010812405
      4601.16       1.1692718     0.010820806
      4605.76       1.1866626     0.010964222
      4610.37       1.2009813     0.010974340
      4614.98       1.2148536     0.010864504
      4619.59       1.2249994     0.010870641
      4624.21       1.2316279     0.010878084
      4628.84       1.2324871     0.010886397
      4633.47       1.2266081     0.011029956
      4638.10       1.2096665     0.010919716
      4642.74       1.1868597     0.010924874
      4647.38       1.1577207     0.010931527
      4652.03       1.1233507     0.010938541
      4656.68       1.0809182     0.010832528
      4661.34       1.0365615     0.010970210
      4666.00      0.99596304     0.010974761
      4670.67      0.95785449     0.010980450
      4675.33      0.92265820     0.010987234
      4680.01      0.89087350     0.010880131
      4684.69      0.86297415     0.011016556
      4689.38      0.84176281     0.011020692
      4694.07      0.82578480     0.011026045
      4698.76      0.81737126     0.010917254
      4703.46      0.81191914     0.010925268
      4708.16      0.81209046     0.011059120
      4712.87      0.81416867     0.011063015
      4717.58      0.81950894     0.010952434
      4722.30      0.82459850     0.010959431
      4727.03      0.83010565     0.010968031
      4731.75      0.83630341     0.011097462
      4736.48      0.83859363     0.010985178
      4741.22      0.83788124     0.010991594
      4745.96      0.83426665     0.010999316
      4750.71      0.82786309     0.011011856
      4755.46      0.81874589     0.011015757
      4760.22      0.80690230     0.011021710
      4764.97      0.79192649     0.011029181
      4769.74      0.77280256     0.010913001
      4774.51      0.75260004     0.011044271
      4779.29      0.73009122     0.011049965
      4784.07      0.70622722     0.011057443
      4788.85      0.67989467     0.010939496
      4793.64      0.65489738     0.011070820
      4798.43      0.63457741     0.011076332
      4803.23      0.61682611     0.010961884
      4808.03      0.60554186     0.010963533
      4812.84      0.59876183     0.011095435
      4817.66      0.60252998     0.010983581
      4822.48      0.61343805     0.010983582
      4827.30      0.63266893     0.010985732
      4832.12      0.66102655     0.011118214
      4836.96      0.69727141     0.011002761
      4841.79      0.72916623     0.011003388
      4846.63      0.76035118     0.011006259
      4851.48      0.79478953     0.011021008
      4856.33      0.81614495     0.011020213
      4861.19      0.83078798     0.011021661
      4866.05      0.83770335     0.011037914
      4870.92      0.83482344     0.011035658
      4875.79      0.82430236     0.011035905
      4880.66      0.80340972     0.010926829
      4885.55      0.77980406     0.011050266
      4890.43      0.75617344     0.011049518
      4895.32      0.73008902     0.010939154
      4900.22      0.70435349     0.011063405
      4905.12      0.68879153     0.011061898
      4910.02      0.68071545     0.010950621
      4914.94      0.67862731     0.011075077
      4919.85      0.68663335     0.011072826
      4924.77      0.70297064     0.010960697
      4929.70      0.72311439     0.010964376
      4934.62      0.74997652     0.011082195
      4939.56      0.78020973     0.010969683
      4944.50      0.81057912     0.010973046
      4949.44      0.84668515     0.010977430
      4954.39      0.87747444     0.010977503
      4959.35      0.90578353     0.010980824
      4964.31      0.93444736     0.010984253
      4969.27      0.95656140     0.010984673
      4974.24      0.97372500     0.010988153
      4979.22      0.98769305     0.010990101
      4984.20      0.99191935     0.010990649
      4989.18      0.98771638     0.010876426
      4994.17      0.97575354     0.010994723
      4999.16      0.95372846     0.010995627
      5004.16      0.92019595     0.010879677
      5009.17      0.88156380     0.010998224
      5014.18      0.83447438     0.010886186
      5019.19      0.78999013     0.010881644
      5024.21      0.74110461     0.011001258
      5029.23      0.69459972     0.010886548
      5034.26      0.65532253     0.010883106
      5039.30      0.61738292     0.010891970
      5044.34      0.59216703     0.010886196
      5049.39      0.57236905     0.011003963
      5054.43      0.56526614     0.010889916
      5059.49      0.56579328     0.010885066
      5064.55      0.57931023     0.010894275
      5069.61      0.59624323     0.010887052
      5074.68      0.61872604     0.010884213
      5079.76      0.65023376     0.010889421
      5084.84      0.67910257     0.010884335
      5089.92      0.71255930     0.010892072
      5095.01      0.74103354     0.010884698
      5100.11      0.76925866     0.010773879
      5105.21      0.79597365     0.010885231
      5110.31      0.81827754     0.010879687
      5115.42      0.83776122     0.010771334
      5120.54      0.85560597     0.010878254
      5125.66      0.87114910     0.010768069
      5130.79      0.88508748     0.010876933
      5135.92      0.89695878     0.010764937
      5141.05      0.90667788     0.010764695
      5146.20      0.91359422     0.010761933
      5151.34      0.91965152     0.010760025
      5156.49      0.92372995     0.010758730
      5161.65      0.92804933     0.010755371
      5166.81      0.93141332     0.010862840
      5171.98      0.93349665     0.010750566
      5177.15      0.93489967     0.010750845
      5182.33      0.93416545     0.010745528
      5187.51      0.93437172     0.010744559
      5192.70      0.93203035     0.010740143
      5197.89      0.93310823     0.010738017
      5203.09      0.93412960     0.010734364
      5208.29      0.93784768     0.010731193
      5213.50      0.94514857     0.010616524
      5218.72      0.95604825     0.010724053
      5223.93      0.97263852     0.010610101
      5229.16      0.98977657     0.010716763
      5234.39       1.0092770     0.010603352
      5239.62       1.0282673     0.010709302
      5244.86       1.0465296     0.010596038
      5250.11       1.0653325     0.010701237
      5255.36       1.0807459     0.010588175
      5260.61       1.0973487     0.010692693
      5265.87       1.1116242     0.010579707
      5271.14       1.1266798     0.010572629
      5276.41       1.1408600     0.010570613
      5281.69       1.1544392     0.010563241
      5286.97       1.1673223     0.010560973
      5292.26       1.1798784     0.010553418
      5297.55       1.1915558     0.010550813
      5302.85       1.2023939     0.010442310
      5308.15       1.2129582     0.010540650
      5313.46       1.2251855     0.010431818
      5318.77       1.2395147     0.010529048
      5324.09       1.2533635     0.010420920
      5329.42       1.2672876     0.010517443
      5334.75       1.2820100     0.010409692
      5340.08       1.2954774     0.010505381
      5345.42       1.3085505     0.010398123
      5350.77       1.3173582     0.010492855
      5356.12       1.3250054     0.010386200
      5361.48       1.3303765     0.010379377
