# starting wavelength =        3443.8700
# ending wavelength =        9593.6200
# O2 telluric scale =        0
# O2 telluric shift =        0
# H2O telluric scale =        0
# H2O telluric shift =        0
      3446.78      0.14191548     0.010455991
      3450.22      0.14501957    0.0097870657
      3453.67      0.14523425    0.0077298304
      3457.13      0.14590919    0.0073819576
      3460.58      0.14733577    0.0061198420
      3464.04      0.14834168    0.0055476447
      3467.51      0.14735599    0.0054019012
      3470.98      0.14361261    0.0048014296
      3474.45      0.14090165    0.0047056751
      3477.92      0.14218530    0.0043368379
      3481.40      0.14248610    0.0041877388
      3484.88      0.14652156    0.0041178333
      3488.37      0.14934358    0.0039414927
      3491.86      0.14998920    0.0038793948
      3495.35      0.15016590    0.0037599841
      3498.84      0.15108108    0.0037305046
      3502.34      0.15217297    0.0036715633
      3505.84      0.15369746    0.0036055840
      3509.35      0.15520227    0.0035505640
      3512.86      0.15631232    0.0036137893
      3516.37      0.15918526    0.0036214938
      3519.89      0.16188701    0.0036297225
      3523.41      0.16461061    0.0036384973
      3526.93      0.16597494    0.0036478110
      3530.46      0.16645262    0.0036487578
      3533.99      0.16555829    0.0036557909
      3537.53      0.16484993    0.0036633504
      3541.06      0.16517095    0.0036714287
      3544.60      0.16673090    0.0036800157
      3548.15      0.16936842    0.0036891132
      3551.70      0.17172703    0.0037521307
      3555.25      0.17159470    0.0037626199
      3558.80      0.17025443    0.0037045922
      3562.36      0.17000110    0.0037124144
      3565.92      0.16943635    0.0037207205
      3569.49      0.16848623    0.0037833005
      3573.06      0.16675608    0.0037929050
      3576.64      0.16679584    0.0038030048
      3580.21      0.16781268    0.0038136025
      3583.79      0.16748817    0.0038247141
      3587.38      0.16854348    0.0038148925
      3590.96      0.16626007    0.0038233689
      3594.55      0.16333306    0.0038323111
      3598.15      0.16325468    0.0038417079
      3601.75      0.16756094    0.0038515588
      3605.35      0.17195468    0.0039211034
      3608.96      0.17589162    0.0039286292
      3612.56      0.17748002    0.0039366606
      3616.18      0.17930175    0.0039451948
      3619.79      0.18287746    0.0038791664
      3623.41      0.18715761    0.0038884841
      3627.04      0.19101541    0.0039611361
      3630.66      0.19631488    0.0039680596
      3634.29      0.20097626    0.0039754686
      3637.93      0.20541140    0.0039833464
      3641.57      0.21069220    0.0039916955
      3645.21      0.21572491    0.0040005110
      3648.86      0.21834054    0.0040724757
      3652.50      0.21974663    0.0040075460
      3656.16      0.21942648    0.0040142474
      3659.81      0.21975229    0.0040213901
      3663.47      0.22024660    0.0040289636
      3667.14      0.22151529    0.0040998552
      3670.80      0.22183265    0.0041086023
      3674.48      0.22085134    0.0041177643
      3678.15      0.22001457    0.0041273389
      3681.83      0.22082245    0.0041373366
      3685.51      0.22127319    0.0041477356
      3689.20      0.22074438    0.0042220929
      3692.88      0.22128599    0.0041441442
      3696.58      0.22075629    0.0041521226
      3700.27      0.21917269    0.0041605251
      3703.98      0.21790430    0.0041693532
      3707.68      0.21721542    0.0041786071
      3711.39      0.21599366    0.0042599198
      3715.10      0.21559043    0.0042664740
      3718.81      0.21499768    0.0042734712
      3722.53      0.21361812    0.0042809062
      3726.26      0.21159019    0.0042887550
      3729.98      0.20903875    0.0042970363
      3733.71      0.20630229    0.0043057466
      3737.45      0.20451663    0.0043049407
      3741.18      0.20186971    0.0043107824
      3744.93      0.19889320    0.0043170303
      3748.67      0.19547212    0.0043236686
      3752.42      0.19140973    0.0043306942
      3756.17      0.18717517    0.0043380844
      3759.93      0.18453163    0.0044191745
      3763.69      0.18064432    0.0044275627
      3767.45      0.17765802    0.0044364253
      3771.22      0.17502630    0.0044455982
      3774.99      0.17362358    0.0044550715
      3778.77      0.17389576    0.0044648435
      3782.54      0.17444263    0.0044751449
      3786.33      0.17527693    0.0045584767
      3790.11      0.17737500    0.0044664369
      3793.90      0.18058117    0.0044738571
      3797.70      0.18402835    0.0044816251
      3801.50      0.18727083    0.0044897423
      3805.30      0.19085712    0.0044982198
      3809.10      0.19626513    0.0045070376
      3812.91      0.20279263    0.0046004058
      3816.73      0.21086168    0.0046063125
      3820.54      0.21985569    0.0046125924
      3824.36      0.22971892    0.0046192152
      3828.19      0.23984583    0.0046261874
      3832.02      0.24935210    0.0046334959
      3835.85      0.25862764    0.0046411386
      3839.68      0.26723163    0.0047344500
      3843.52      0.27765636    0.0047430981
      3847.37      0.28737804    0.0047520812
      3851.22      0.29507622    0.0047613827
      3855.07      0.30044559    0.0047710029
      3858.92      0.30461092    0.0047810180
      3862.78      0.30814023    0.0046781237
      3866.64      0.31524269    0.0047700247
      3870.51      0.32022790    0.0047765788
      3874.38      0.32496563    0.0047835589
      3878.26      0.32990687    0.0047908036
      3882.13      0.33484950    0.0047983088
      3886.02      0.33916803    0.0048060797
      3889.90      0.34328729    0.0048141172
      3893.79      0.34784241    0.0048224266
      3897.69      0.35092698    0.0049315574
      3901.59      0.35677113    0.0049367699
      3905.49      0.36487498    0.0049422838
      3909.39      0.37406727    0.0049481001
      3913.30      0.38297056    0.0049541851
      3917.22      0.39110123    0.0049605438
      3921.13      0.39805792    0.0049671621
      3925.06      0.40369090    0.0049740258
      3928.98      0.41024052    0.0050806111
      3932.91      0.41452755    0.0050882594
      3936.84      0.41859748    0.0050961302
      3940.78      0.42211256    0.0051042147
      3944.72      0.42394309    0.0051124500
      3948.67      0.42349091    0.0051208202
      3952.61      0.42248840    0.0051293069
      3956.57      0.42306093    0.0051381979
      3960.52      0.42472280    0.0051474479
      3964.48      0.42575746    0.0052618448
      3968.45      0.42736409    0.0052676716
      3972.42      0.42993966    0.0052736183
      3976.39      0.43327461    0.0052797037
      3980.37      0.43768936    0.0052859399
      3984.35      0.44304653    0.0052923542
      3988.33      0.44877937    0.0052989355
      3992.32      0.45268637    0.0053056975
      3996.31      0.45378211    0.0053126437
      4000.31      0.45469232    0.0054365726
      4004.31      0.45517355    0.0054443658
      4008.31      0.45518093    0.0054523020
      4012.32      0.45389074    0.0054604359
      4016.33      0.45276365    0.0054687748
      4020.35      0.45253082    0.0054772482
      4024.37      0.45096803    0.0054858544
      4028.40      0.44672125    0.0054945900
      4032.42      0.44086307    0.0055033598
      4036.46      0.43444687    0.0056364779
      4040.50      0.42682276    0.0056417226
      4044.54      0.41666725    0.0056469220
      4048.58      0.40582882    0.0056525151
      4052.63      0.39721762    0.0056582431
      4056.68      0.39186138    0.0056643337
      4060.74      0.38747789    0.0056703582
      4064.80      0.38132536    0.0056763394
      4068.86      0.37214977    0.0056823214
      4072.93      0.35998220    0.0056883351
      4077.01      0.34712327    0.0056944028
      4081.08      0.33561700    0.0057005587
      4085.17      0.32631683    0.0055441012
      4089.25      0.31883936    0.0055501911
      4093.34      0.31263991    0.0055564185
      4097.43      0.30800493    0.0055626471
      4101.53      0.30490956    0.0055689336
      4105.63      0.30194576    0.0055752608
      4109.74      0.29866180    0.0055816144
      4113.85      0.29584787    0.0055879960
      4117.96      0.29470796    0.0055943188
      4122.08      0.29682440    0.0056005781
      4126.20      0.30183396    0.0056067593
      4130.33      0.30807691    0.0056127628
      4134.46      0.31467680    0.0056185608
      4138.59      0.32032922    0.0056246340
      4142.73      0.32418926    0.0056306202
      4146.88      0.32650232    0.0056365565
      4151.02      0.32722701    0.0056426434
      4155.18      0.32775214    0.0056485212
      4159.33      0.32888179    0.0057867802
      4163.49      0.33046564    0.0057911788
      4167.65      0.33184470    0.0057954938
      4171.82      0.33265994    0.0057997557
      4175.99      0.33410371    0.0058040120
      4180.17      0.33520189    0.0058082745
      4184.35      0.33428360    0.0058125606
      4188.54      0.33298881    0.0058168854
      4192.72      0.33364863    0.0058212556
      4196.92      0.33597169    0.0058256569
      4201.11      0.33867060    0.0058300861
      4205.31      0.34059457    0.0058345329
      4209.52      0.34189387    0.0058389716
      4213.73      0.34310392    0.0058433759
      4217.94      0.34308518    0.0058477079
      4222.16      0.34204638    0.0058519272
      4226.38      0.33823074    0.0057339005
      4230.61      0.33624952    0.0057376928
      4234.84      0.33566266    0.0057416493
      4239.08      0.33737504    0.0055791186
      4243.32      0.33900031    0.0055831685
      4247.56      0.34027829    0.0055870561
      4251.81      0.34089698    0.0055908195
      4256.06      0.34159993    0.0055944863
      4260.32      0.34223671    0.0055980908
      4264.58      0.34279010    0.0056016516
      4268.84      0.34319775    0.0056051935
      4273.11      0.34219033    0.0056087296
      4277.38      0.34011807    0.0056122802
      4281.66      0.33849356    0.0056158517
      4285.94      0.33651758    0.0056194640
      4290.23      0.33324779    0.0056230977
      4294.52      0.32891872    0.0056267604
      4298.81      0.32417271    0.0056304454
      4303.11      0.32011979    0.0056341524
      4307.42      0.31672774    0.0056378643
      4311.72      0.31423797    0.0056415670
      4316.04      0.31460234    0.0057971094
      4320.35      0.31590577    0.0057990578
      4324.67      0.31682263    0.0058007384
      4329.00      0.31592175    0.0058026761
      4333.33      0.31411126    0.0058045745
      4337.66      0.31404254    0.0058066463
      4342.00      0.31505717    0.0058085033
      4346.34      0.31490934    0.0058102332
      4350.69      0.31415467    0.0058118831
      4355.04      0.31331118    0.0058135118
      4359.39      0.31181842    0.0058150977
      4363.75      0.31054508    0.0058166992
      4368.12      0.31164551    0.0058183637
      4372.48      0.31617709    0.0058200691
      4376.86      0.32258783    0.0058219017
      4381.23      0.32911323    0.0058237897
      4385.61      0.33505556    0.0056993188
      4390.00      0.33954081    0.0057014334
      4394.39      0.34480572    0.0057036170
      4398.79      0.35145482    0.0057058671
      4403.18      0.35865822    0.0057081600
      4407.59      0.36458730    0.0057104846
      4412.00      0.36842170    0.0057128214
      4416.41      0.37110730    0.0057151516
      4420.82      0.37409693    0.0057174364
      4425.25      0.37797713    0.0057200653
      4429.67      0.38349769    0.0057230432
      4434.10      0.39043286    0.0057260157
      4438.54      0.39627996    0.0057290224
      4442.97      0.40124649    0.0057321198
      4447.42      0.40860606    0.0057353413
      4451.86      0.41939669    0.0057387097
      4456.32      0.43243463    0.0057422826
      4460.77      0.44598208    0.0057460815
      4465.24      0.45794382    0.0056069791
      4469.70      0.47193981    0.0056075322
      4474.17      0.48925969    0.0057545516
      4478.65      0.51071502    0.0057553921
      4483.12      0.53282454    0.0057564558
      4487.61      0.55389838    0.0057577530
      4492.09      0.57319734    0.0057592550
      4496.59      0.59123557    0.0057609687
      4501.08      0.60956461    0.0057628838
      4505.58      0.62857591    0.0057649797
      4510.09      0.64676446    0.0057672422
      4514.60      0.66187212    0.0057696507
      4519.12      0.67347505    0.0057728218
      4523.63      0.68277800    0.0057761630
      4528.16      0.68879702    0.0056437636
      4532.69      0.69532941    0.0056427749
      4537.22      0.70194870    0.0056420735
      4541.76      0.70775017    0.0056416390
      4546.30      0.71080589    0.0056415185
      4550.85      0.71106695    0.0056417428
      4555.40      0.71184444    0.0057891404
      4559.95      0.71662342    0.0057900632
      4564.51      0.72108362    0.0057914439
      4569.08      0.72315041    0.0057932744
      4573.65      0.72423472    0.0057955569
      4578.22      0.72577817    0.0056729019
      4582.80      0.72818950    0.0056704873
      4587.38      0.73022155    0.0056684780
      4591.97      0.72961516    0.0056668227
      4596.56      0.72545755    0.0056655214
      4601.16      0.71847859    0.0056645709
      4605.76      0.71116004    0.0056639481
      4610.37      0.70432797    0.0056640390
      4614.98      0.69627149    0.0056647810
      4619.59      0.68650999    0.0058131279
      4624.21      0.67532083    0.0056972099
      4628.84      0.66502306    0.0056929472
      4633.47      0.65194166    0.0056892163
      4638.10      0.63783339    0.0056860465
      4642.74      0.62513608    0.0056834566
      4647.38      0.61389236    0.0056814965
      4652.03      0.60200468    0.0056801331
      4656.68      0.59036381    0.0056794869
      4661.34      0.58156280    0.0056794491
      4666.00      0.57549530    0.0056800773
      4670.67      0.57535405    0.0057121840
      4675.33      0.57427078    0.0057072070
      4680.01      0.57175585    0.0057028949
      4684.69      0.56729391    0.0056992880
      4689.38      0.56172495    0.0056963497
      4694.07      0.55674898    0.0056940814
      4698.76      0.55335738    0.0056924699
      4703.46      0.55044880    0.0056914759
      4708.16      0.54441647    0.0055778925
      4712.87      0.54021520    0.0055787184
      4717.58      0.53802964    0.0055801956
      4722.30      0.53362243    0.0057131229
      4727.03      0.53048499    0.0057086484
      4731.75      0.52850227    0.0057050588
      4736.48      0.52804463    0.0057023825
      4741.22      0.52946410    0.0057006147
      4745.96      0.53574947    0.0055856533
      4750.71      0.54052120    0.0055858781
      4755.46      0.54547827    0.0055869755
      4760.22      0.55044751    0.0055889592
      4764.97      0.55764979    0.0057171794
      4769.74      0.55978507    0.0057131341
      4774.51      0.56022037    0.0057101243
      4779.29      0.55934824    0.0055934470
      4784.07      0.56045687    0.0055926881
      4788.85      0.56109218    0.0055927904
      4793.64      0.56038108    0.0055939936
      4798.43      0.55969027    0.0055959571
      4803.23      0.55914228    0.0057214870
      4808.03      0.56196188    0.0057171699
      4812.84      0.56252254    0.0055990401
      4817.66      0.56847606    0.0055973922
      4822.48      0.57738499    0.0055968089
      4827.30      0.58820686    0.0055973209
      4832.12      0.59945254    0.0055989652
      4836.96      0.61026303    0.0056017828
      4841.79      0.62212670    0.0057210620
      4846.63      0.63734886    0.0056024503
      4851.48      0.64911522    0.0056007023
      4856.33      0.65875752    0.0056001640
      4861.19      0.66674668    0.0056008390
      4866.05      0.67392576    0.0056027513
      4870.92      0.68131984    0.0056059246
      4875.79      0.68934299    0.0056076101
      4880.66      0.69032053    0.0056045652
      4885.55      0.68957520    0.0056027118
      4890.43      0.68757199    0.0056025728
      4895.32      0.68255722    0.0056036795
      4900.22      0.67345729    0.0056060974
      4905.12      0.65978281    0.0054817657
      4910.02      0.65035751    0.0056068087
      4914.94      0.64016101    0.0056043255
      4919.85      0.62856386    0.0056033152
      4924.77      0.61681383    0.0056037888
      4929.70      0.60590585    0.0056058044
      4934.62      0.59838607    0.0054827001
      4939.56      0.59140377    0.0054787868
      4944.50      0.58181699    0.0056046866
      4949.44      0.57262963    0.0056036598
      4954.39      0.56559957    0.0056042599
      4959.35      0.56132903    0.0054881889
      4964.31      0.55643896    0.0054826951
      4969.27      0.55078310    0.0054787525
      4974.24      0.54344271    0.0056046068
      4979.22      0.53599606    0.0056037901
      4984.20      0.52840736    0.0056045244
      4989.18      0.51805977    0.0054857476
      4994.17      0.50928399    0.0054803106
      4999.16      0.50101236    0.0054765568
      5004.16      0.49308798    0.0056027048
      5009.17      0.48962545    0.0056023589
      5014.18      0.49120335    0.0054874596
      5019.19      0.49229182    0.0054809298
      5024.21      0.49456678    0.0054763043
      5029.23      0.49894161    0.0054735180
      5034.26      0.50565979    0.0056006304
      5039.30      0.51318936    0.0054885485
      5044.34      0.52026271    0.0054812790
      5049.39      0.52759539    0.0054759895
      5054.43      0.53430737    0.0054726577
      5059.49      0.54101868    0.0055992312
      5064.55      0.54405293    0.0054882255
      5069.61      0.54802876    0.0054801950
      5074.68      0.55206096    0.0054742872
      5079.76      0.55567850    0.0054705763
      5084.84      0.55823903    0.0053669240
      5089.92      0.56220085    0.0054856620
      5095.01      0.57100859    0.0054773146
      5100.11      0.58157549    0.0054712055
      5105.21      0.59272509    0.0054673144
      5110.31      0.60375673    0.0053637383
      5115.42      0.61433152    0.0054810758
      5120.54      0.62649162    0.0054729137
      5125.66      0.64010504    0.0054671624
      5130.79      0.65367837    0.0054637600
      5135.92      0.66729106    0.0053607709
      5141.05      0.68167023    0.0054756971
      5146.20      0.69352427    0.0054681149
      5151.34      0.70448711    0.0054630167
      5156.49      0.71301566    0.0053583628
      5161.65      0.71980148    0.0053582393
      5166.81      0.72544720    0.0054691858
      5171.98      0.73305895    0.0054621660
      5177.15      0.74400916    0.0053559012
      5182.33      0.75647598    0.0053543047
      5187.51      0.76946560    0.0053549927
      5192.70      0.78338052    0.0054608906
      5197.89      0.79550708    0.0054552578
      5203.09      0.80873636    0.0053505763
      5208.29      0.82023279    0.0053503754
      5213.50      0.83285658    0.0054595347
      5218.72      0.84444679    0.0054529143
      5223.93      0.85604730    0.0053473423
      5229.16      0.86713639    0.0053464877
      5234.39      0.87760995    0.0053481782
      5239.62      0.88827886    0.0054506563
      5244.86      0.89497705    0.0053442441
      5250.11      0.90277521    0.0053427473
      5255.36      0.91021392    0.0053439978
      5260.61      0.91367013    0.0054474190
      5265.87      0.91849669    0.0053404596
      5271.14      0.92708517    0.0053384683
      5276.41      0.93805815    0.0053392041
      5281.69      0.95013307    0.0053408948
      5286.97      0.95755227    0.0053358807
      5292.26      0.96519252    0.0053337109
