# starting wavelength =        3542.2600
# ending wavelength =        9146.5900
# O2 telluric scale =        0
# O2 telluric shift =        0
# H2O telluric scale =        0
# H2O telluric shift =        0
      3544.60      0.23825052     0.019306377
      3548.15      0.23668226     0.016668485
      3551.70      0.23528241     0.013101658
      3555.25      0.23319068     0.012470939
      3558.80      0.23280033     0.010293075
      3562.36      0.23321371    0.0099480334
      3565.92      0.23278351    0.0090406401
      3569.49      0.22906128    0.0080191388
      3573.06      0.22405408    0.0078510457
      3576.64      0.22326016    0.0072320493
      3580.21      0.22709242    0.0071062696
      3583.79      0.23122037    0.0067184325
      3587.38      0.23117091    0.0065751995
      3590.96      0.23183425    0.0064704522
      3594.55      0.23125152    0.0062779644
      3598.15      0.23165875    0.0061824979
      3601.75      0.23077868    0.0060478574
      3605.35      0.23089950    0.0060312598
      3608.96      0.22975525    0.0059394469
      3612.56      0.23137481    0.0059581834
      3616.18      0.23615484    0.0059775287
      3619.79      0.23926495    0.0059975805
      3623.41      0.23956055    0.0060994005
      3627.04      0.23770359    0.0061160762
      3630.66      0.23692193    0.0061332996
      3634.29      0.23729482    0.0060396257
      3637.93      0.23861545    0.0060578630
      3641.57      0.24142930    0.0061681680
      3645.21      0.23910157    0.0061831034
      3648.86      0.23344984    0.0061986345
      3652.50      0.23020901    0.0062147265
      3656.16      0.23028097    0.0062313897
      3659.81      0.22820146    0.0062486111
      3663.47      0.22276121    0.0063559204
      3667.14      0.22064689    0.0063749251
      3670.80      0.21932179    0.0062794825
      3674.48      0.22182696    0.0062941779
      3678.15      0.22158045    0.0063095331
      3681.83      0.21583194    0.0063254088
      3685.51      0.21394274    0.0064325012
      3689.20      0.21060496    0.0064498659
      3692.88      0.20584729    0.0064678109
      3696.58      0.20317397    0.0064863106
      3700.27      0.20525439    0.0065053675
      3703.98      0.20790788    0.0066189215
      3707.68      0.21046554    0.0066342402
      3711.39      0.20950180    0.0065230329
      3715.10      0.20684244    0.0065392789
      3718.81      0.20186351    0.0065560348
      3722.53      0.19928742    0.0065733108
      3726.26      0.19932751    0.0066964885
      3729.98      0.19921601    0.0067100158
      3733.71      0.20275138    0.0067240212
      3737.45      0.20905857    0.0067385260
      3741.18      0.21214450    0.0067535068
      3744.93      0.21191368    0.0067690916
      3748.67      0.21289449    0.0068903862
      3752.42      0.21300205    0.0069077036
      3756.17      0.21018619    0.0069255435
      3759.93      0.21019601    0.0068109252
      3763.69      0.20944521    0.0068240493
      3767.45      0.20789541    0.0068376328
      3771.22      0.20548690    0.0068516364
      3774.99      0.20644097    0.0069726593
      3778.77      0.20651856    0.0069879324
      3782.54      0.20560807    0.0070036704
      3786.33      0.20524877    0.0070199756
      3790.11      0.20643142    0.0070369166
      3793.90      0.20823459    0.0070543243
      3797.70      0.20758204    0.0071857007
      3801.50      0.20459403    0.0071988894
      3805.30      0.20200856    0.0072125161
      3809.10      0.20272869    0.0072265757
      3812.91      0.20417204    0.0072410559
      3816.73      0.20389113    0.0072559361
      3820.54      0.20712420    0.0071238424
      3824.36      0.20736997    0.0072685185
      3828.19      0.21053088    0.0072795849
      3832.02      0.21470702    0.0072912914
      3835.85      0.21809606    0.0073033543
      3839.68      0.22415355    0.0073157771
      3843.52      0.23400562    0.0073285348
      3847.37      0.24323228    0.0074651546
      3851.22      0.25297182    0.0074789935
      3855.07      0.26105354    0.0074931905
      3858.92      0.26927063    0.0075077023
      3862.78      0.27961860    0.0075228775
      3866.64      0.29341421    0.0075384917
      3870.51      0.30945835    0.0075546796
      3874.38      0.32348579    0.0077061444
      3878.26      0.33568100    0.0077176977
      3882.13      0.34649557    0.0077295606
      3886.02      0.36007393    0.0077417040
      3889.90      0.37696033    0.0077541248
      3893.79      0.39363619    0.0077667990
      3897.69      0.40954602    0.0077800972
      3901.59      0.42430064    0.0077937569
      3905.49      0.43174472    0.0079513008
      3909.39      0.44211089    0.0079663976
      3913.30      0.45134128    0.0079820830
      3917.22      0.45577510    0.0078239173
      3921.13      0.46214312    0.0078340192
      3925.06      0.46636366    0.0078443693
      3928.98      0.46860602    0.0078549092
      3932.91      0.46905371    0.0078656474
      3936.84      0.46888859    0.0080207087
      3940.78      0.46420312    0.0080325154
      3944.72      0.46260162    0.0080446392
      3948.67      0.45958974    0.0080570736
      3952.61      0.45271078    0.0080698166
      3956.57      0.44596685    0.0080830307
      3960.52      0.44106898    0.0080963874
      3964.48      0.43798435    0.0081098117
      3968.45      0.43529156    0.0082931316
      3972.42      0.43223922    0.0083016755
      3976.39      0.43057355    0.0083107832
      3980.37      0.43226271    0.0083201513
      3984.35      0.43721115    0.0083297674
      3988.33      0.44325592    0.0083396248
      3992.32      0.44912803    0.0083496985
      3996.31      0.45583394    0.0083602360
      4000.31      0.46134149    0.0085377104
      4004.31      0.46357032    0.0085488235
      4008.31      0.46247998    0.0085597595
      4012.32      0.46024597    0.0085712226
      4016.33      0.45738570    0.0085828865
      4020.35      0.45380218    0.0085947173
      4024.37      0.44886296    0.0086067263
      4028.40      0.44495653    0.0086189294
      4032.42      0.44359276    0.0086312473
      4036.46      0.43946616    0.0088432744
      4040.50      0.43239074    0.0088511938
      4044.54      0.42386249    0.0088590549
      4048.58      0.41817495    0.0088667052
      4052.63      0.41272742    0.0088748524
      4056.68      0.40662195    0.0088831259
      4060.74      0.40000564    0.0088915354
      4064.80      0.39183232    0.0089000777
      4068.86      0.38407672    0.0089087244
      4072.93      0.37908890    0.0091124796
      4077.01      0.37202167    0.0091215304
      4081.08      0.36490281    0.0091307337
      4085.17      0.35713564    0.0091399785
      4089.25      0.34912845    0.0091495982
      4093.34      0.34155474    0.0091591912
      4097.43      0.33483309    0.0091687485
      4101.53      0.32950321    0.0091782911
      4105.63      0.32515390    0.0091878081
      4109.74      0.32232486    0.0091972813
      4113.85      0.32294122    0.0092067059
      4117.96      0.32471588    0.0092162806
      4122.08      0.32588395    0.0092254567
      4126.20      0.33081737    0.0092349520
      4130.33      0.34048832    0.0092443318
      4134.46      0.34821726    0.0092536500
      4138.59      0.35181644    0.0092629831
      4142.73      0.35240665    0.0092722137
      4146.88      0.35187810    0.0092813809
      4151.02      0.35498249    0.0092904426
      4155.18      0.36034426    0.0092993084
      4159.33      0.36300740    0.0093083557
      4163.49      0.36179070    0.0093167977
      4167.65      0.36159234    0.0095486967
      4171.82      0.35898270    0.0095548521
      4175.99      0.35565423    0.0095608982
      4180.17      0.35066190    0.0095667989
      4184.35      0.34628494    0.0095726381
      4188.54      0.34450644    0.0095782958
      4192.72      0.34232156    0.0095837443
      4196.92      0.33881288    0.0095889259
      4201.11      0.33816577    0.0095950706
      4205.31      0.33974778    0.0096009210
      4209.52      0.33869391    0.0096065807
      4213.73      0.33452047    0.0096120978
      4217.94      0.33142353    0.0096174967
      4222.16      0.33071948    0.0096227905
      4226.38      0.33227388    0.0096279615
      4230.61      0.33512697    0.0096329734
      4234.84      0.33746024    0.0096377668
      4239.08      0.34059364    0.0096422621
      4243.32      0.34528188    0.0096476808
      4247.56      0.34932480    0.0093801077
      4251.81      0.35028040    0.0091820191
      4256.06      0.34872541    0.0091864076
      4260.32      0.34838063    0.0091906890
      4264.58      0.34845312    0.0091948626
      4268.84      0.34640867    0.0091989160
      4273.11      0.34136674    0.0092028249
      4277.38      0.33557515    0.0092069160
      4281.66      0.33031536    0.0092105619
      4285.94      0.32487744    0.0092144067
      4290.23      0.32023179    0.0092181318
      4294.52      0.31673914    0.0092217721
      4298.81      0.31559212    0.0092253463
      4303.11      0.31760194    0.0092288720
      4307.42      0.32007502    0.0092323414
      4311.72      0.32140994    0.0092357433
      4316.04      0.32569418    0.0092394140
      4320.35      0.33402647    0.0092427514
      4324.67      0.34013001    0.0092457157
      4329.00      0.34205665    0.0092489716
      4333.33      0.34222189    0.0092521806
      4337.66      0.34292938    0.0092553773
      4342.00      0.34623031    0.0095046986
      4346.34      0.34718712    0.0095050212
      4350.69      0.34960421    0.0095051625
      4355.04      0.35523971    0.0095054667
      4359.39      0.36005913    0.0095052123
      4363.75      0.36304869    0.0095052440
      4368.12      0.36837395    0.0095051976
      4372.48      0.37692148    0.0095050445
      4376.86      0.38301200    0.0095048191
      4381.23      0.38489459    0.0095045926
      4385.61      0.38512999    0.0095042751
      4390.00      0.38307627    0.0095038826
      4394.39      0.37968502    0.0095034412
      4398.79      0.37909662    0.0095031126
      4403.18      0.38054030    0.0095031393
      4407.59      0.37724129    0.0092952129
      4412.00      0.37276306    0.0092952618
      4416.41      0.37284567    0.0092953624
      4420.82      0.37696644    0.0092954827
      4425.25      0.38169380    0.0092956506
      4429.67      0.38694210    0.0092958463
      4434.10      0.39554072    0.0092964215
      4438.54      0.40386174    0.0092967332
      4442.97      0.40987441    0.0092974801
      4447.42      0.41969697    0.0092983341
      4451.86      0.43611750    0.0092993377
      4456.32      0.45482584    0.0093005342
      4460.77      0.47109409    0.0093019495
      4465.24      0.48531043    0.0093035884
      4469.70      0.50207172    0.0093054395
      4474.17      0.52282417    0.0093075145
      4478.65      0.54495505    0.0093102587
      4483.12      0.56691848    0.0093128390
      4487.61      0.58871252    0.0090815137
      4492.09      0.60666365    0.0090787457
      4496.59      0.62208478    0.0093113370
      4501.08      0.63605301    0.0093087964
      4505.58      0.64786970    0.0093064831
      4510.09      0.65718084    0.0093044156
      4514.60      0.66576903    0.0093029437
      4519.12      0.67176593    0.0093014206
      4523.63      0.67166556    0.0093005872
      4528.16      0.67105405    0.0093000886
      4532.69      0.67703157    0.0092999878
      4537.22      0.68687593    0.0093003177
      4541.76      0.69505582    0.0093011300
      4546.30      0.70133059    0.0090879425
      4550.85      0.70443376    0.0090824871
      4555.40      0.70648826    0.0090772428
      4559.95      0.70872816    0.0090722210
      4564.51      0.70983317    0.0090673753
      4569.08      0.71267134    0.0090633637
      4573.65      0.71823342    0.0090598689
      4578.22      0.72212006    0.0092904796
      4582.80      0.72117722    0.0092878612
      4587.38      0.72035008    0.0092858386
      4591.97      0.71981312    0.0092847674
      4596.56      0.72056744    0.0092840830
      4601.16      0.72335448    0.0090786223
      4605.76      0.71940322    0.0090704001
      4610.37      0.71133745    0.0090628646
      4614.98      0.70312953    0.0090559551
      4619.59      0.69584922    0.0090497348
      4624.21      0.68773940    0.0090442294
      4628.84      0.67797577    0.0090393935
      4633.47      0.66741623    0.0090356617
      4638.10      0.65546127    0.0090323096
      4642.74      0.63725880    0.0092617724
      4647.38      0.62327387    0.0090681811
      4652.03      0.61225211    0.0090572589
      4656.68      0.60557823    0.0090472011
      4661.34      0.60343005    0.0090380432
      4666.00      0.60072882    0.0090297086
      4670.67      0.59520018    0.0090225150
      4675.33      0.58906425    0.0090160940
      4680.01      0.58607411    0.0090102560
      4684.69      0.58613904    0.0090057235
      4689.38      0.58457738    0.0088198595
      4694.07      0.58322132    0.0090406590
      4698.76      0.58040188    0.0090281547
      4703.46      0.57685761    0.0090167052
      4708.16      0.57431774    0.0090066526
      4712.87      0.57279927    0.0089975743
      4717.58      0.56983824    0.0089893902
      4722.30      0.56562726    0.0089821104
      4727.03      0.56202372    0.0089763920
      4731.75      0.56175646    0.0087899212
      4736.48      0.55983126    0.0087867310
      4741.22      0.55672028    0.0089967134
      4745.96      0.55683242    0.0089842266
      4750.71      0.56089627    0.0089729428
      4755.46      0.56205080    0.0089627744
      4760.22      0.55861307    0.0089537590
      4764.97      0.55697590    0.0089465186
      4769.74      0.55954753    0.0087590696
      4774.51      0.55974746    0.0087548568
      4779.29      0.55918065    0.0087519563
      4784.07      0.56260639    0.0089528208
      4788.85      0.56439515    0.0089403182
      4793.64      0.56324713    0.0089291348
      4798.43      0.56152774    0.0089192964
      4803.23      0.56103662    0.0087299757
      4808.03      0.56605987    0.0087240436
      4812.84      0.57543515    0.0087195724
      4817.66      0.58604079    0.0087165964
      4822.48      0.59692972    0.0087151544
      4827.30      0.60628446    0.0088996060
      4832.12      0.61764635    0.0088882768
      4836.96      0.63339393    0.0086973932
      4841.79      0.64497442    0.0086902780
      4846.63      0.65451797    0.0086847936
      4851.48      0.66310470    0.0086810013
      4856.33      0.67066802    0.0086789347
      4861.19      0.67636983    0.0086786693
      4866.05      0.67781350    0.0086707636
      4870.92      0.67844264    0.0086613966
      4875.79      0.67746031    0.0086537370
      4880.66      0.67420685    0.0086477064
      4885.55      0.66932055    0.0086438067
      4890.43      0.66422874    0.0086418267
      4895.32      0.65995977    0.0086419497
      4900.22      0.65998040    0.0086301230
      4905.12      0.65839372    0.0086210297
      4910.02      0.65374988    0.0086137448
      4914.94      0.64959415    0.0086083157
      4919.85      0.64645712    0.0086047872
      4924.77      0.64390806    0.0086036917
      4929.70      0.64220222    0.0084014370
      4934.62      0.63698274    0.0085856388
      4939.56      0.63111433    0.0085772399
      4944.50      0.62336769    0.0085713668
      4949.44      0.61347853    0.0085675797
      4954.39      0.60118784    0.0083788843
      4959.35      0.58918485    0.0083657558
      4964.31      0.57663176    0.0085479625
      4969.27      0.56637799    0.0085390095
      4974.24      0.55772855    0.0085324895
      4979.22      0.54916317    0.0085284381
      4984.20      0.54041257    0.0083398379
      4989.18      0.53572009    0.0083267241
      4994.17      0.53413579    0.0083158359
      4999.16      0.53121076    0.0084987264
      5004.16      0.52745426    0.0084924980
      5009.17      0.52639173    0.0083121549
      5014.18      0.53090609    0.0082968200
      5019.19      0.53761555    0.0082840459
      5024.21      0.54326792    0.0082740721
      5029.23      0.54862967    0.0084572676
      5034.26      0.55081838    0.0084520586
      5039.30      0.54903359    0.0082659517
      5044.34      0.54855124    0.0082514640
      5049.39      0.54820756    0.0082397503
      5054.43      0.54578173    0.0082308033
      5059.49      0.54271261    0.0084142666
      5064.55      0.54326914    0.0082332092
      5069.61      0.54708614    0.0082174789
      5074.68      0.55172552    0.0082045224
      5079.76      0.55707165    0.0081943360
      5084.84      0.56635322    0.0082167605
      5089.92      0.57358055    0.0081970310
      5095.01      0.57885743    0.0081804991
      5100.11      0.58510052    0.0081673529
      5105.21      0.59354668    0.0081571791
      5110.31      0.60782552    0.0081793985
      5115.42      0.62064159    0.0081589844
      5120.54      0.63279132    0.0081418123
      5125.66      0.64679878    0.0081282602
      5130.79      0.66117369    0.0081179807
      5135.92      0.67449708    0.0079570748
      5141.05      0.68574397    0.0081182683
      5146.20      0.69566924    0.0081016717
      5151.34      0.70449055    0.0080884693
      5156.49      0.71487819    0.0079248606
      5161.65      0.72612343    0.0079184048
      5166.81      0.73972719    0.0080746493
      5171.98      0.75145320    0.0080587864
      5177.15      0.76302169    0.0080465792
      5182.33      0.77193267    0.0078854763
      5187.51      0.77830591    0.0080487024
      5192.70      0.78444680    0.0080301934
      5197.89      0.79150629    0.0080153851
      5203.09      0.80053700    0.0078522482
      5208.29      0.81126306    0.0078454438
      5213.50      0.82482653    0.0080006581
      5218.72      0.84009309    0.0079843154
      5223.93      0.85732525    0.0078199898
      5229.16      0.87140110    0.0078116170
      5234.39      0.88430511    0.0078066887
      5239.62      0.89656678    0.0079521179
      5244.86      0.90677964    0.0077865053
      5250.11      0.91702958    0.0077770138
      5255.36      0.92861795    0.0077714181
      5260.61      0.93997960    0.0079200164
      5265.87      0.94871403    0.0077536635
      5271.14      0.95817601    0.0077431365
      5276.41      0.96547976    0.0077363186
      5281.69      0.96918539    0.0077332388
      5286.97      0.96926010    0.0077191765
      5292.26      0.97475474    0.0077081080
      5297.55      0.98057350    0.0077012284
      5302.85      0.98601846    0.0076982156
      5308.15      0.99151412    0.0076849253
      5313.46      0.99636769    0.0076733782
      5318.77       1.0007327    0.0076658128
      5324.09       1.0038909    0.0076625825
      5329.42       1.0019036    0.0076490710
      5334.75       1.0036588    0.0076379051
      5340.08       1.0073606    0.0076308537
      5345.42       1.0130159    0.0076279807
      5350.77       1.0226427    0.0076130517
      5356.12       1.0344717    0.0076017459
      5361.48       1.0451393    0.0075950558
      5366.83       1.0574386    0.0074345081
      5372.20       1.0725198    0.0075762759
      5377.58       1.0867895    0.0075661075
      5382.95       1.1032298    0.0075603733
      5388.34       1.1268496    0.0073978232
      5393.72       1.1503279    0.0075391562
      5399.12       1.1694444    0.0075297025
      5404.52       1.1868757    0.0073762399
      5409.92       1.2049003    0.0073598265
      5415.33       1.2246851    0.0075020630
      5420.75       1.2408530    0.0074945055
      5426.17       1.2499573    0.0073376169
      5431.60       1.2575180    0.0073226186
      5437.03       1.2644752    0.0074650302
      5442.47       1.2657528    0.0073157344
