# starting wavelength =        3498.0021
# ending wavelength =        7356.4400
# O2 telluric scale =        0
# O2 telluric shift =        0
# H2O telluric scale =        0
# H2O telluric shift =        0
      3498.84      0.54548178     0.054728451
      3502.34      0.54469688     0.052970534
      3505.84      0.53246806     0.051538138
      3509.35      0.50886588     0.050219839
      3512.86      0.51635193     0.049158666
      3516.37      0.52953264     0.048255981
      3519.89      0.52714699     0.047478440
      3523.41      0.52310104     0.046505907
      3526.93      0.54054979     0.046344997
      3530.46      0.56530029     0.046405772
      3533.99      0.60256835     0.046474823
      3537.53      0.62031119     0.046010192
      3541.06      0.65101080     0.046076179
      3544.60      0.67215716     0.045917332
      3548.15      0.68708998     0.045979893
      3551.70      0.70803866     0.045752805
      3555.25      0.70370710     0.045584791
      3558.80      0.70310027     0.045657118
      3562.36      0.72212377     0.045501473
      3565.92      0.74385824     0.045261640
      3569.49      0.75480781     0.045334803
      3573.06      0.75232447     0.045169918
      3576.64      0.77118861     0.045250611
      3580.21      0.75360452     0.045015117
      3583.79      0.74574783     0.044856277
      3587.38      0.72222688     0.044928919
      3590.96      0.71657314     0.044706123
      3594.55      0.70565185     0.044537367
      3598.15      0.66377340     0.044618448
      3601.75      0.65270866     0.044699208
      3605.35      0.66141238     0.044227402
      3608.96      0.66671240     0.044308128
      3612.56      0.63946908     0.044392233
      3616.18      0.62949657     0.043918752
      3619.79      0.62220250     0.044001928
      3623.41      0.61105376     0.044089366
      3627.04      0.57487399     0.043924739
      3630.66      0.57962162     0.043699959
      3634.29      0.56712283     0.043787213
      3637.93      0.55546497     0.043632397
      3641.57      0.54666918     0.043399260
      3645.21      0.55015605     0.043492313
      3648.86      0.57067293     0.043327847
      3652.50      0.57392837     0.043105361
      3656.16      0.60561189     0.043197107
      3659.81      0.62177719     0.043043494
      3663.47      0.62302376     0.043131469
      3667.14      0.62227806     0.042908406
      3670.80      0.64533025     0.043007409
      3674.48      0.66460683     0.042855029
      3678.15      0.66273709     0.042621630
      3681.83      0.66965394     0.042723091
      3685.51      0.69135808     0.042830632
      3689.20      0.69940283     0.042337574
      3692.88      0.71186180     0.042444405
      3696.58      0.75557172     0.042551225
      3700.27      0.80475672     0.042061718
      3703.98      0.81373863     0.042164889
      3707.68      0.82567453     0.042283180
      3711.39      0.82276463     0.042054533
      3715.10      0.82676358     0.041899897
      3718.81      0.86484912     0.042007022
      3722.53      0.87383447     0.041786583
      3726.26      0.89076042     0.041904735
      3729.98      0.87761412     0.042026837
      3733.71      0.85595442     0.041522086
      3737.45      0.84092088     0.041639858
      3741.18      0.83890771     0.041773049
      3744.93      0.82850279     0.041544457
      3748.67      0.83629942     0.041391483
      3752.42      0.83255880     0.041162050
      3756.17      0.81158911     0.041290575
      3759.93      0.78689064     0.041427364
      3763.69      0.79192419     0.041203153
      3767.45      0.78421410     0.041046130
      3771.22      0.77804434     0.041176471
      3774.99      0.79266486     0.040958131
      3778.77      0.82114150     0.041099525
      3782.54      0.83836592     0.041245068
      3786.33      0.87735036     0.040719184
      3790.11      0.89963027     0.040857373
      3793.90      0.88256261     0.040640902
      3797.70      0.86278527     0.040790906
      3801.50      0.84024335     0.040945238
      3805.30      0.84019009     0.040732797
      3809.10      0.82012326     0.040557434
      3812.91      0.79485247     0.040735289
      3816.73      0.75384986     0.040502778
      3820.54      0.71719221     0.040664161
      3824.36      0.69895159     0.040451092
      3828.19      0.69364098     0.040619153
      3832.02      0.68713946     0.040472195
      3835.85      0.70159412     0.040235710
      3839.68      0.71307003     0.040404481
      3843.52      0.75561636     0.040187354
      3847.37      0.76987070     0.040372523
      3851.22      0.78703795     0.040147789
      3855.07      0.82685786     0.039993144
      3858.92      0.86613020     0.039762404
      3862.78      0.88716118     0.039542814
      3866.64      0.89284121     0.039387598
      3870.51      0.88239633     0.039160706
      3874.38      0.86830908     0.038603848
      3878.26      0.85626103     0.038789022
      3882.13      0.85833129     0.038566383
      3886.02      0.85817136     0.038017431
      3889.90      0.87841817     0.038197919
      3893.79      0.89508123     0.037977846
      3897.69      0.90854473     0.037437265
      3901.59      0.91405435     0.037614330
      3905.49      0.92136921     0.037396245
      3909.39      0.94074614     0.036862816
      3913.30      0.95093404     0.036662270
      3917.22      0.97619205     0.036821825
      3921.13      0.97345652     0.036293889
      3925.06      0.98957135     0.036095036
      3928.98       1.0243601     0.036254643
      3932.91       1.0283979     0.035732646
      3936.84       1.0175918     0.035533771
      3940.78      0.99802752     0.035341670
      3944.72      0.97661009     0.035178303
      3948.67      0.96469155     0.034978992
      3952.61      0.94372260     0.034786484
      3956.57      0.91703230     0.034292823
      3960.52      0.91482507     0.034431979
      3964.48      0.93028819     0.034238515
      3968.45      0.93583774     0.033758787
      3972.42      0.93327339     0.033561432
      3976.39      0.93114712     0.033698983
      3980.37      0.95180141     0.033233460
      3984.35      0.97120181     0.033035735
      3988.33       1.0030317     0.032843104
      3992.32       1.0363195     0.032978793
      3996.31       1.0689894     0.032519217
      4000.31       1.1240343     0.032325356
      4004.31       1.1567503     0.032136200
      4008.31       1.1697070     0.032011649
      4012.32       1.1874729     0.031816622
      4016.33       1.2082285     0.031626939
      4020.35       1.2014635     0.031441026
      4024.37       1.1899420     0.030998653
      4028.40       1.1756467     0.031127757
      4032.42       1.1582245     0.030941154
      4036.46       1.1484387     0.030757950
      4040.50       1.1301583     0.030323733
      4044.54       1.1177113     0.030148982
      4048.58       1.1037441     0.030268076
      4052.63       1.1106412     0.030086983
      4056.68       1.1086884     0.029660263
      4060.74       1.0863910     0.029487006
      4064.80       1.0687834     0.029317395
      4068.86       1.0549887     0.029428295
      4072.93       1.0285524     0.029008775
      4077.01       1.0113474     0.028836590
      4081.08      0.97942153     0.028667950
      4085.17      0.95653042     0.028501168
      4089.25      0.95101042     0.028099774
      4093.34      0.92928708     0.028198973
      4097.43      0.89434528     0.028031277
      4101.53      0.88971412     0.027865290
      4105.63      0.88467153     0.027702389
      4109.74      0.89589901     0.027313340
      4113.85      0.90690654     0.027147814
      4117.96      0.91214571     0.027243457
      4122.08      0.93297021     0.027080921
      4126.20      0.95639256     0.026920547
      4130.33      0.98197652     0.026546078
      4134.46      0.99732580     0.026382891
      4138.59      0.99339080     0.026222326
      4142.73       1.0049972     0.026063042
      4146.88       1.0094049     0.026156021
      4151.02      0.99363894     0.025798573
      4155.18      0.99723761     0.025638738
      4159.33      0.97216754     0.025480074
      4163.49      0.95138162     0.025323731
      4167.65      0.91809393     0.025168808
      4171.82      0.90880814     0.025015999
      4175.99      0.90074647     0.024665991
      4180.17      0.89387312     0.024516562
      4184.35      0.88319442     0.024604990
      4188.54      0.89119159     0.024452407
      4192.72      0.88070886     0.024301310
      4196.92      0.88008124     0.024151179
      4201.11      0.88488665     0.023811582
      4205.31      0.90101213     0.023665709
      4209.52      0.91299223     0.023521267
      4213.73      0.92244289     0.023377994
      4217.94      0.94967664     0.023235377
      4222.16      0.97473450     0.023093779
      4226.38      0.97843922     0.022953478
      4230.61      0.97461813     0.022631731
      4234.84      0.98917709     0.022701543
      4239.08      0.97472574     0.022560579
      4243.32      0.97312619     0.022420919
      4247.56      0.97794215     0.022282627
      4251.81       1.0014294     0.022145012
      4256.06      0.98036447     0.022008409
      4260.32      0.97952784     0.021872887
      4264.58      0.98113184     0.021737789
      4268.84      0.97807788     0.021438909
      4273.11      0.96842486     0.021304650
      4277.38      0.96328364     0.021171410
      4281.66      0.94669265     0.021038700
      4285.94      0.94200659     0.020906681
      4290.23      0.93209849     0.020776128
      4294.52      0.92223459     0.020646371
      4298.81      0.92422290     0.020517534
      4303.11      0.91978365     0.020389390
      4307.42      0.91275872     0.020261674
      4311.72      0.89179679     0.020134732
      4316.04      0.88664447     0.019856255
      4320.35      0.88408538     0.019732246
      4324.67      0.88124275     0.019608635
      4329.00      0.89046277     0.019485750
      4333.33      0.88918681     0.019364085
      4337.66      0.88245519     0.019242673
      4342.00      0.90000953     0.019122073
      4346.34      0.91200638     0.019002224
      4350.69      0.90402961     0.018883159
      4355.04      0.90657153     0.018764783
      4359.39      0.90652831     0.018647029
      4363.75      0.90817631     0.018529825
      4368.12      0.92508746     0.018413406
      4372.48      0.93657855     0.018297340
      4376.86      0.94725176     0.018182233
      4381.23      0.95032182     0.018067785
      4385.61      0.96731628     0.017953610
      4390.00      0.96714687     0.017840573
      4394.39      0.96172282     0.017728236
      4398.79      0.96876909     0.017616295
      4403.18      0.96866230     0.017505048
      4407.59      0.96329728     0.017394881
      4412.00      0.97282609     0.017284996
      4416.41      0.96675265     0.017175903
      4420.82      0.96893962     0.017067510
      4425.25      0.96413288     0.016959886
      4429.67      0.95978859     0.016852912
      4434.10      0.94037252     0.016595459
      4438.54      0.93030577     0.016490836
      4442.97      0.93010870     0.016386543
      4447.42      0.94776189     0.016283336
      4451.86      0.97187347     0.016180916
      4456.32      0.98138394     0.016079232
      4460.77      0.97854887     0.015978030
      4465.24      0.98318891     0.015877924
      4469.70      0.99855992     0.015778290
      4474.17       1.0135717     0.015679530
      4478.65       1.0280075     0.015581562
      4483.12       1.0377488     0.015343764
      4487.61       1.0415932     0.015246765
      4492.09       1.0492071     0.015150480
      4496.59       1.0606608     0.015054873
      4501.08       1.0563058     0.014959880
      4505.58       1.0646166     0.014865954
      4510.09       1.0677051     0.014772802
      4514.60       1.0716872     0.014680459
      4519.12       1.0721312     0.014588637
      4523.63       1.0752903     0.014476785
      4528.16       1.0967752     0.014384965
      4532.69       1.1201601     0.014293744
      4537.22       1.1351634     0.014203706
      4541.76       1.1391548     0.014114764
      4546.30       1.1471278     0.014026509
      4550.85       1.1611560     0.013938931
      4555.40       1.1717596     0.013731214
      4559.95       1.1904904     0.013646302
      4564.51       1.2027288     0.013562294
      4569.08       1.2063771     0.013479277
      4573.65       1.2067483     0.013490082
      4578.22       1.2211718     0.013405866
      4582.80       1.2272039     0.013206213
      4587.38       1.2357813     0.013124759
      4591.97       1.2471431     0.013044084
      4596.56       1.2521415     0.012964630
      4601.16       1.2567089     0.012886179
      4605.76       1.2614627     0.012693151
      4610.37       1.2700042     0.012614752
      4614.98       1.2773918     0.012627286
      4619.59       1.2824810     0.012550466
      4624.21       1.2913454     0.012474539
      4628.84       1.2904357     0.012290921
      4633.47       1.3001721     0.012215265
      4638.10       1.2999322     0.012140726
      4642.74       1.2865224     0.012067040
      4647.38       1.2823909     0.012080668
      4652.03       1.2707414     0.011904626
      4656.68       1.2620555     0.011831499
      4661.34       1.2518511     0.011759685
      4666.00       1.2479530     0.011689042
      4670.67       1.2267799     0.011520962
      4675.33       1.2159004     0.011533618
      4680.01       1.1969064     0.011463524
      4684.69       1.1821022     0.011394695
      4689.38       1.1742668     0.011327251
      4694.07       1.1678635     0.011165502
      4698.76       1.1595427     0.011101014
      4703.46       1.1393055     0.011110885
      4708.16       1.1405820     0.010951930
      4712.87       1.1379931     0.010888151
      4717.58       1.1332972     0.010825696
      4722.30       1.1296745     0.010764510
      4727.03       1.1228823     0.010682554
      4731.75       1.1145060     0.010620975
      4736.48       1.1125323     0.010560828
      4741.22       1.1065016     0.010502073
      4745.96       1.1096561     0.010423324
      4750.71       1.1022578     0.010364050
      4755.46       1.0913659     0.010306204
      4760.22       1.0813556     0.010161019
      4764.97       1.0740947     0.010103093
      4769.74       1.0681585     0.010116919
      4774.51       1.0646812     0.010061474
      4779.29       1.0585977    0.0099199107
      4784.07       1.0495464    0.0098646777
      4788.85       1.0353433    0.0098795044
      4793.64       1.0249438    0.0097427425
      4798.43       1.0222506    0.0096886685
      4803.23       1.0099591    0.0096361352
      4808.03      0.99871809    0.0095711800
      4812.84      0.98679192    0.0095182091
      4817.66      0.97994781    0.0094668489
      4822.48      0.98015403    0.0094048376
      4827.30      0.96746593    0.0093531331
      4832.12      0.96167920    0.0093031737
      4836.96      0.95359997    0.0091795661
      4841.79      0.94533389    0.0091935699
      4846.63      0.93607544    0.0091449972
      4851.48      0.93224412    0.0090242676
      4856.33      0.93480423    0.0090391048
      4861.19      0.94818856    0.0089191960
      4866.05      0.95263459    0.0088743225
      4870.92      0.96746777    0.0088310541
      4875.79      0.97688289    0.0087728475
      4880.66      0.98637464    0.0087296032
      4885.55       1.0022687    0.0086879135
      4890.43       1.0129173    0.0086315345
      4895.32       1.0264945    0.0085899131
      4900.22       1.0342683    0.0084785284
      4905.12       1.0497548    0.0084953193
      4910.02       1.0576100    0.0084556615
      4914.94       1.0634948    0.0083464407
      4919.85       1.0653362    0.0083644112
      4924.77       1.0655628    0.0082585419
      4929.70       1.0670437    0.0082193012
      4934.62       1.0665702    0.0082383743
      4939.56       1.0625861    0.0081344471
      4944.50       1.0676675    0.0080971881
      4949.44       1.0736722    0.0080522022
      4954.39       1.0853133    0.0080152291
      4959.35       1.0880415    0.0079727892
      4964.31       1.0970030    0.0079361213
      4969.27       1.1009479    0.0079011925
      4974.24       1.1107975    0.0078593641
      4979.22       1.1228410    0.0078248394
      4984.20       1.1280303    0.0077319412
      4989.18       1.1340126    0.0077509605
      4994.17       1.1345821    0.0076590868
      4999.16       1.1370515    0.0076794475
      5004.16       1.1289932    0.0075886498
      5009.17       1.1277444    0.0075592433
      5014.18       1.1184408    0.0075205814
      5019.19       1.1045016    0.0074917145
      5024.21       1.0893744    0.0074549588
      5029.23       1.0722464    0.0074265579
      5034.26       1.0540889    0.0073412978
      5039.30       1.0333072    0.0073635407
      5044.34       1.0136448    0.0072802152
      5049.39      0.99552206    0.0073026106
      5054.43      0.97718774    0.0072774783
      5059.49      0.95918032    0.0072439260
      5064.55      0.95159274    0.0071640964
      5069.61      0.94546172    0.0071382842
      5074.68      0.94016040    0.0071091308
      5079.76      0.93838268    0.0070839383
      5084.84      0.93810731    0.0070561388
      5089.92      0.93997709    0.0070317720
      5095.01      0.95027038    0.0070050860
      5100.11      0.95569159    0.0069815169
      5105.21      0.97058255    0.0069558723
      5110.31      0.97554849    0.0069330964
      5115.42      0.98932229    0.0069085363
      5120.54       1.0045720    0.0068866468
      5125.66       1.0147446    0.0068630656
      5130.79       1.0213530    0.0068421575
      5135.92       1.0325954    0.0067736751
      5141.05       1.0412058    0.0067499122
      5146.20       1.0475840    0.0067325412
      5151.34       1.0484012    0.0067095606
      5156.49       1.0547199    0.0066932427
      5161.65       1.0629453    0.0066711617
      5166.81       1.0676576    0.0066558261
      5171.98       1.0766857    0.0066345976
      5177.15       1.0828492    0.0065703956
      5182.33       1.0910497    0.0065998150
      5187.51       1.0967384    0.0065812638
      5192.70       1.1048170    0.0065670023
      5197.89       1.1126555    0.0065490600
      5203.09       1.1194158    0.0064883465
      5208.29       1.1226606    0.0065187366
      5213.50       1.1304268    0.0064586407
      5218.72       1.1429144    0.0064902899
      5223.93       1.1463553    0.0064308429
      5229.16       1.1498857    0.0064174646
      5234.39       1.1552400    0.0064047680
      5239.62       1.1479490    0.0063918507
      5244.86       1.1450288    0.0063806078
      5250.11       1.1437015    0.0063681416
      5255.36       1.1484876    0.0063571714
      5260.61       1.1487554    0.0063462002
      5265.87       1.1518714    0.0063356369
      5271.14       1.1616359    0.0062825277
      5276.41       1.1661688    0.0063159067
      5281.69       1.1765085    0.0063071194
      5286.97       1.1805411    0.0062548347
      5292.26       1.1936899    0.0062895652
      5297.55       1.2049240    0.0062392560
      5302.85       1.2138479    0.0062310737
      5308.15       1.2203352    0.0062256170
      5313.46       1.2310878    0.0062176344
      5318.77       1.2432529    0.0062108841
      5324.09       1.2464105    0.0062061787
      5329.42       1.2444738    0.0061996702
      5334.75       1.2435029    0.0061943618
      5340.08       1.2459987    0.0061904510
      5345.42       1.2458153    0.0061852247
      5350.77       1.2473707    0.0061387713
      5356.12       1.2427554    0.0061358070
      5361.48       1.2348467    0.0061742873
      5366.83       1.2182255    0.0061289369
      5372.20       1.2074819    0.0061270959
