# starting wavelength =        4969.0100
# ending wavelength =        9391.1200
# O2 telluric scale =        0
# O2 telluric shift =        0
# H2O telluric scale =        0
# H2O telluric shift =        0
      4969.27      0.62876763     0.023890376
      4974.24      0.63305562     0.020020843
      4979.22      0.63398600     0.017035025
      4984.20      0.63034857     0.015343481
      4989.18      0.62508967     0.013404231
      4994.17      0.61998999     0.011540662
      4999.16      0.61656010     0.010445876
      5004.16      0.61464669    0.0095972046
      5009.17      0.61218079    0.0091030631
      5014.18      0.60801596    0.0085459609
      5019.19      0.60396379    0.0080383736
      5024.21      0.60053716    0.0077059149
      5029.23      0.59918413    0.0075169320
      5034.26      0.59823990    0.0072737930
      5039.30      0.59750312    0.0070647620
      5044.34      0.59933504    0.0069203266
      5049.39      0.60094955    0.0067648552
      5054.43      0.60213459    0.0066865770
      5059.49      0.60442163    0.0065558281
      5064.55      0.60570545    0.0065164493
      5069.61      0.60573465    0.0065389928
      5074.68      0.60896976    0.0064987111
      5079.76      0.61714522    0.0065196457
      5084.84      0.62758154    0.0064804674
      5089.92      0.63973956    0.0064419596
      5095.01      0.65054971    0.0064652447
      5100.11      0.66892213    0.0064257692
      5105.21      0.68541831    0.0063869443
      5110.31      0.69841333    0.0064098186
      5115.42      0.71386568    0.0063720467
      5120.54      0.72633990    0.0063965317
      5125.66      0.74046434    0.0063576997
      5130.79      0.75173151    0.0063195758
      5135.92      0.76180630    0.0063440996
      5141.05      0.77212686    0.0063069319
      5146.20      0.78375393    0.0063330086
      5151.34      0.79542884    0.0062947131
      5156.49      0.80787803    0.0062571109
      5161.65      0.82150264    0.0062832263
      5166.81      0.83409026    0.0062466605
      5171.98      0.84456544    0.0062106602
      5177.15      0.85396879    0.0062369945
      5182.33      0.86074646    0.0061998258
      5187.51      0.86946635    0.0062276274
      5192.70      0.87896098    0.0061913855
      5197.89      0.88666780    0.0061558695
      5203.09      0.89409361    0.0061847968
      5208.29      0.90147568    0.0061481162
      5213.50      0.90959291    0.0061119505
      5218.72      0.91896443    0.0061417740
      5223.93      0.92889080    0.0061065196
      5229.16      0.94007200    0.0060719069
      5234.39      0.95330955    0.0061024182
      5239.62      0.96640022    0.0060665778
      5244.86      0.97713680    0.0060981306
      5250.11      0.99165300    0.0060631410
      5255.36       1.0076346    0.0060286775
      5260.61       1.0172455    0.0060634869
      5265.87       1.0276094    0.0060277124
      5271.14       1.0377823    0.0059925967
      5276.41       1.0444856    0.0060261648
      5281.69       1.0502377    0.0059917787
      5286.97       1.0566673    0.0059580438
      5292.26       1.0624677    0.0059963182
      5297.55       1.0658227    0.0059611724
      5302.85       1.0652055    0.0059266727
      5308.15       1.0666491    0.0059622958
      5313.46       1.0649868    0.0059285419
      5318.77       1.0620369    0.0059550525
      5324.09       1.0606531    0.0059947720
      5329.42       1.0554053    0.0059619649
      5334.75       1.0502833    0.0059297365
      5340.08       1.0466199    0.0059707711
      5345.42       1.0455526    0.0059371065
      5350.77       1.0443608    0.0059039213
      5356.12       1.0439071    0.0059460302
      5361.48       1.0454797    0.0059134842
      5366.83       1.0494677    0.0058815748
      5372.20       1.0555224    0.0059297508
      5377.58       1.0659319    0.0058961867
      5382.95       1.0767291    0.0059325534
      5388.34       1.0905160    0.0059790273
      5393.72       1.1050783    0.0059462657
      5399.12       1.1241934    0.0059141235
      5404.52       1.1439534    0.0059637489
      5409.92       1.1655677    0.0059321831
      5415.33       1.1846060    0.0059012035
      5420.75       1.2091205    0.0058706278
      5426.17       1.2322853    0.0058404879
      5431.60       1.2511325    0.0058108431
      5437.03       1.2681472    0.0057088720
      5442.47       1.2818671    0.0056785017
      5447.91       1.2913188    0.0057262990
      5453.36       1.2984319    0.0056964705
      5458.81       1.3022198    0.0056669722
      5464.27       1.2974532    0.0056380740
      5469.73       1.2910921    0.0056095045
      5475.20       1.2811971    0.0055812611
      5480.68       1.2704039    0.0055534746
      5486.16       1.2536482    0.0055259946
      5491.65       1.2380992    0.0054322624
      5497.14       1.2189997    0.0054044241
      5502.64       1.2008985    0.0053768960
      5508.14       1.1835729    0.0053496817
      5513.65       1.1672695    0.0053230260
      5519.16       1.1510975    0.0052966676
      5524.68       1.1410006    0.0052707341
      5530.20       1.1319213    0.0052450567
      5535.73       1.1243282    0.0052196750
      5541.27       1.1214172    0.0051946584
      5546.81       1.1196090    0.0052406017
      5552.36       1.1198901    0.0052158521
      5557.91       1.1212924    0.0051323148
      5563.47       1.1256102    0.0051074753
      5569.04       1.1306266    0.0050829055
      5574.60       1.1370660    0.0050588267
      5580.18       1.1450279    0.0050349978
      5585.76       1.1528415    0.0050114031
      5591.35       1.1559665    0.0049881833
      5596.94       1.1602535    0.0049652610
      5602.53       1.1615610    0.0049426851
      5608.14       1.1612751    0.0049203386
      5613.75       1.1630168    0.0048982282
      5619.36       1.1597613    0.0048764678
      5624.98       1.1522246    0.0048549757
      5630.60       1.1435538    0.0048338281
      5636.23       1.1309614    0.0048128820
      5641.87       1.1143176    0.0047921603
      5647.51       1.0927661    0.0047717567
      5653.16       1.0643462    0.0046937281
      5658.82       1.0302982    0.0046741264
      5664.47      0.99444612    0.0046546604
      5670.14      0.95517831    0.0046354668
      5675.81      0.91296149    0.0046166053
      5681.48      0.87094838    0.0045978661
      5687.17      0.83277197    0.0045794921
      5692.85      0.79578952    0.0045612287
      5698.55      0.76061297    0.0045433137
      5704.25      0.73093145    0.0045255610
      5709.95      0.70732147    0.0045080722
      5715.66      0.69235813    0.0044908822
      5721.38      0.68749495    0.0044738679
      5727.10      0.68351969    0.0044573873
      5732.83      0.68439969    0.0044413536
      5738.56      0.69259251    0.0044256517
      5744.30      0.70463675    0.0044100267
      5750.04      0.71855339    0.0043946371
      5755.79      0.73131854    0.0043800450
      5761.55      0.74495222    0.0043666814
      5767.31      0.76331663    0.0043015239
      5773.08      0.78534623    0.0042906220
      5778.85      0.80666958    0.0042799305
      5784.63      0.83194352    0.0042701022
      5790.41      0.85930567    0.0042608378
      5796.21      0.88810741    0.0042506186
      5802.00      0.91554989    0.0042391460
      5807.81      0.94406317    0.0042271372
      5813.61      0.97421931    0.0042149596
      5819.43       1.0054284    0.0042023430
      5825.25       1.0388528    0.0041892292
      5831.07       1.0722822    0.0041759897
      5836.90       1.1019575    0.0041631050
      5842.74       1.1289389    0.0041508132
      5848.58       1.1588760    0.0041386611
      5854.43       1.1831681    0.0041262111
      5860.29       1.2032671    0.0041136778
      5866.15       1.2199068    0.0040466331
      5872.01       1.2327081    0.0040335138
      5877.89       1.2437085    0.0040207396
      5883.76       1.2489063    0.0040556325
      5889.65       1.2519978    0.0040425358
      5895.54       1.2537869    0.0040305031
      5901.43       1.2514261    0.0040193493
      5907.34       1.2452701    0.0040081841
      5913.24       1.2357296    0.0039970238
      5919.16       1.2231125    0.0039866860
      5925.08       1.2096954    0.0039771813
      5931.00       1.1964450    0.0039682360
      5936.93       1.1843613    0.0039108685
      5942.87       1.1735113    0.0039020640
      5948.81       1.1653754    0.0038936804
      5954.76       1.1583140    0.0038856284
      5960.72       1.1519585    0.0038778945
      5966.68       1.1422999    0.0038704198
      5972.64       1.1349590    0.0038633209
      5978.62       1.1266737    0.0038565750
      5984.60       1.1171412    0.0038974870
      5990.58       1.1094453    0.0038460940
      5996.57       1.0980139    0.0038391836
      6002.57       1.0876946    0.0038325779
      6008.57       1.0737934    0.0038263386
      6014.58       1.0585330    0.0038203899
      6020.60       1.0426531    0.0038147797
      6026.62       1.0261537    0.0038094631
      6032.65       1.0094213    0.0038044766
      6038.68      0.99406182    0.0037564787
      6044.72      0.98342631    0.0037523618
      6050.76      0.97691739    0.0037485392
      6056.81      0.97487082    0.0037888209
      6062.87      0.97650901    0.0037843413
      6068.93      0.98080066    0.0037801731
      6075.00      0.98900162    0.0037764348
      6081.08       1.0025877    0.0037303213
      6087.16       1.0185856    0.0037273427
      6093.25       1.0349755    0.0037248464
      6099.34       1.0532560    0.0037226605
      6105.44       1.0717488    0.0037211197
      6111.54       1.0882186    0.0037623627
      6117.66       1.0998738    0.0037205347
      6123.78       1.1095414    0.0037185644
      6129.90       1.1171776    0.0037167010
      6136.03       1.1201744    0.0037170535
      6142.17       1.1219703    0.0037198442
      6148.31       1.1217337    0.0037247549
      6154.46       1.1183302    0.0036898065
      6160.61       1.1150534    0.0037426629
      6166.77       1.1123283    0.0037504088
      6172.94       1.1112070    0.0037578974
      6179.11       1.1110519    0.0037644535
      6185.29       1.1140161    0.0037261663
      6191.48       1.1173610    0.0037264324
      6197.67       1.1217310    0.0037247033
      6203.87       1.1273066    0.0037660131
      6210.07       1.1329550    0.0037607526
      6216.28       1.1399031    0.0037551637
      6222.50       1.1505741    0.0037056822
      6228.72       1.1562695    0.0037020955
      6234.95       1.1621370    0.0037008222
      6241.19       1.1684177    0.0037430528
      6247.42       1.1728996    0.0037413662
      6253.67       1.1794942    0.0036992252
      6259.93       1.1878520    0.0036982576
      6266.19       1.1935330    0.0036980665
      6272.46       1.1987901    0.0036986013
      6278.73       1.2021398    0.0037053984
      6285.01       1.2093354    0.0037057321
      6291.29       1.2164930    0.0037069091
      6297.58       1.2215983    0.0037089970
      6303.88       1.2229019    0.0037119323
      6310.19       1.2237981    0.0036772971
      6316.50       1.2233643    0.0037243062
      6322.81       1.2208964    0.0037275233
      6329.14       1.2151698    0.0037317190
      6335.47       1.2094306    0.0036989175
      6341.80       1.2072323    0.0037061233
      6348.14       1.1978836    0.0037579759
      6354.49       1.1929600    0.0037649825
      6360.85       1.1904360    0.0037332510
      6367.21       1.1889442    0.0037407269
      6373.57       1.1888644    0.0037487315
      6379.95       1.1872884    0.0037990387
      6386.33       1.1847010    0.0037654467
      6392.72       1.1852442    0.0037709088
      6399.11       1.1869110    0.0037765100
      6405.51       1.1923489    0.0038243158
      6411.92       1.1937986    0.0037891522
      6418.32       1.1946491    0.0037945486
      6424.74       1.1968269    0.0038010421
      6431.17       1.2008561    0.0037668273
      6437.60       1.1994655    0.0038174857
      6444.04       1.1995320    0.0038234232
      6450.48       1.1969472    0.0038298335
      6456.94       1.1963957    0.0037940679
      6463.39       1.1973918    0.0038451109
      6469.85       1.1949201    0.0038518864
      6476.33       1.1927913    0.0038182102
      6482.80       1.1907076    0.0038229627
      6489.28       1.1882689    0.0038747737
      6495.77       1.1844803    0.0038823037
      6502.27       1.1784277    0.0038496230
      6508.77       1.1739849    0.0038567946
      6515.28       1.1700034    0.0039115690
      6521.80       1.1669072    0.0038807131
      6528.32       1.1618462    0.0038880907
      6534.85       1.1565575    0.0038963288
      6541.38       1.1563745    0.0039138017
      6547.92       1.1555024    0.0039212250
      6554.47       1.1536760    0.0039294660
      6561.03       1.1515847    0.0039486885
      6567.59       1.1509021    0.0039561312
      6574.16       1.1478017    0.0039645556
      6580.73       1.1453148    0.0039740405
      6587.31       1.1404292    0.0039925646
      6593.90       1.1353727    0.0040011284
      6600.50       1.1294801    0.0040107126
      6607.10       1.1216435    0.0040302703
      6613.70       1.1150390    0.0040389436
      6620.32       1.1045652    0.0040099417
      6626.94       1.0939195    0.0040207889
      6633.57       1.0848076    0.0040779940
      6640.20       1.0739516    0.0040489383
      6646.84       1.0621976    0.0040600944
      6653.49       1.0502749    0.0041182988
      6660.14       1.0383283    0.0040891765
      6666.80       1.0301075    0.0041007015
      6673.47       1.0207374    0.0041598440
      6680.14       1.0119682    0.0041317888
      6686.82       1.0025721    0.0041490555
      6693.51      0.99265367    0.0041748529
      6700.20      0.98038244    0.0042030045
      6706.90      0.97112502    0.0042103416
      6713.61      0.96149511    0.0041869693
      6720.32      0.95198266    0.0042711255
      6727.05      0.94279641    0.0043156338
      6733.77      0.93308140    0.0043449338
      6740.51      0.92404684    0.0044693016
      6747.25      0.91419974    0.0045426922
      6754.00      0.90507274    0.0045857924
      6760.75      0.89774328    0.0047178724
      6767.51      0.88990129    0.0047277636
      6774.28      0.88269446    0.0048233084
      6781.05      0.87589657    0.0048341449
      6787.84      0.86614777    0.0047636423
      6794.62      0.86104693    0.0047892955
      6801.42      0.85623424    0.0046931235
      6808.22      0.84951208    0.0046586497
      6815.03      0.84141850    0.0046853161
      6821.85      0.83638793    0.0046267877
      6828.67      0.83166519    0.0046189395
      6835.50      0.83089371    0.0045987752
      6842.33      0.82889703    0.0045910719
      6849.17      0.82602118    0.0045982369
      6856.02      0.82595964    0.0045968313
      6862.88      0.82638406    0.0045991288
      6869.74      0.82801134    0.0046130960
      6876.61      0.83050719    0.0046212149
      6883.49      0.83425028    0.0045907556
      6890.37      0.84116795    0.0046565872
      6897.27      0.84880396    0.0046265066
      6904.16      0.85867694    0.0046924870
      6911.07      0.86739168    0.0047022909
      6917.98      0.87738654    0.0046690992
      6924.89      0.88921230    0.0047287307
      6931.82      0.89769173    0.0046953609
      6938.75      0.90396403    0.0047592504
      6945.69      0.91008873    0.0047259662
      6952.64      0.91316573    0.0047382427
      6959.59      0.91268695    0.0047569747
      6966.55      0.91249747    0.0047699955
      6973.52      0.90910662    0.0047919450
      6980.49      0.90760689    0.0048071649
      6987.47      0.90294223    0.0048776857
      6994.46      0.89736995    0.0048550793
      7001.46      0.89260656    0.0048762951
      7008.46      0.88548726    0.0049080130
      7015.46      0.88062062    0.0049335095
      7022.48      0.87750855    0.0049807856
      7029.51      0.87359250    0.0050208989
      7036.53      0.87334834    0.0050989639
      7043.57      0.87464351    0.0051606042
      7050.62      0.87463519    0.0051910726
      7057.66      0.87760290    0.0053193175
      7064.72      0.88065871    0.0053245752
      7071.79      0.88478908    0.0054340481
      7078.86      0.89007214    0.0054115979
      7085.94      0.89382716    0.0054989640
      7093.03      0.90218502    0.0054563340
      7100.12      0.91327530    0.0055238536
      7107.22      0.92565622    0.0054752886
      7114.33      0.94000011    0.0055467452
      7121.44      0.95299877    0.0055142565
      7128.56      0.96756577    0.0055360108
      7135.69      0.98298178    0.0055733360
      7142.83      0.99561763    0.0055924392
      7149.97       1.0103776    0.0056158123
      7157.12       1.0228910    0.0055673951
      7164.28       1.0305729    0.0056196773
      7171.44       1.0377753    0.0055634428
      7178.62       1.0451951    0.0056184451
      7185.80       1.0501965    0.0055635242
      7192.98       1.0547249    0.0056135669
      7200.17       1.0545181    0.0055511437
      7207.38       1.0570137    0.0055955980
      7214.58       1.0624340    0.0055370480
      7221.80       1.0668527    0.0055880999
      7229.02       1.0714564    0.0055368179
      7236.25       1.0793323    0.0055417474
      7243.49       1.0883543    0.0055485320
      7250.73       1.1016741    0.0055623521
      7257.98       1.1107623    0.0055732339
      7265.24       1.1216519    0.0055886165
      7272.51       1.1297810    0.0055992324
      7279.78       1.1406203    0.0056136993
      7287.06       1.1470019    0.0055732212
      7294.35       1.1496420    0.0056437926
      7301.64       1.1489368    0.0056654334
      7308.94       1.1457148    0.0056793932
      7316.25       1.1375857    0.0057023391
      7323.57       1.1268660    0.0057177143
      7330.89       1.1119077    0.0057412855
      7338.22       1.1029148    0.0057062636
      7345.56       1.0964363    0.0057833753
      7352.91       1.0871277    0.0057475692
      7360.26       1.0745863    0.0058267032
      7367.62       1.0632426    0.0057904364
      7374.99       1.0593136    0.0058192857
      7382.37       1.0549295    0.0058982507
      7389.75       1.0468875    0.0058669455
      7397.14       1.0379455    0.0059287791
      7404.53       1.0289713    0.0059854933
      7411.94       1.0230055    0.0060758192
      7419.35       1.0140233    0.0060903216
      7426.77       1.0018047    0.0061119344
      7434.20      0.98659689    0.0062508882
      7441.63      0.96989201    0.0063943793
      7449.07      0.94682228    0.0067273326
      7456.52      0.91975147    0.0069981345
      7463.98      0.89167084    0.0075171493
      7471.45      0.86703371    0.0078825511
      7478.92      0.84197027    0.0085065933
      7486.40      0.80351112    0.0090744437
      7493.88      0.75895667    0.0092665585
      7501.38      0.71537572    0.0095876677
      7508.88      0.67574213    0.0093957761
      7516.39      0.64470442    0.0090973200
      7523.91      0.62132817    0.0087811918
      7531.43      0.60567274    0.0082799055
      7538.96      0.59776241    0.0077823467
      7546.50      0.59601850    0.0075092253
      7554.05      0.60249380    0.0071969427
      7561.60      0.61457067    0.0069405830
      7569.16      0.62595017    0.0068101609
      7576.73      0.64529769    0.0067005883
      7584.31      0.67158628    0.0066437110
      7591.89      0.69692638    0.0066100060
      7599.49      0.72390861    0.0065707101
      7607.09      0.74913752    0.0065513378
      7614.70      0.77891714    0.0064924109
      7622.31      0.81132635    0.0065516073
      7629.93      0.84400331    0.0065026804
